\STAR_ID='HD 16160'
\DATA_CATEGORY='Planet Radial Velocity Curve'
\NUMBER_OF_POINTS='48'
\TIME_REFERENCE_FRAME='HJD'
\MINIMUM_DATE='2449679.7295'
\DATE_UNITS='days'
\MAXIMUM_DATE='2455846.8337'
\MINIMUM_VALUE='-55.2099990845'
\VALUE_UNITS='m/s'
\MAXIMUM_VALUE='32.3899993896'
\REFERENCE='Howard & Fulton, 2016'
\BIBCODE='2016arXiv160603134H'
\TELESCOPE='3.0m Shane'
\INSTRUMENT='l: Hamilton Spectrograph post-dewar 16 (after November 1994)'
\WAVELENGTH_CALIBRATION_TECHNIQUE='Iodine'
\OBSERVATORY_SITE='Lick Observatory, California'
\COLUMN_RADIAL_VELOCITY='Relative radial velocity'
\COLUMN_RADIAL_VELOCITY_UNCERTAINTY='Uncertainty in RADIAL_VELOCITY'
|          HJD|Radial_Velocity|Radial_Velocity_Uncertainty|
|       double|         double|                     double|
|         days|          m / s|                      m / s|
|         null|           null|                       null|
  2449679.7295  -25.3099994659                        4.77 
  2450002.9834  -17.5699996948                        2.02 
 2450013.90527  -20.9899997711                   3.2399998 
 2450033.83918  -22.1399993896                        2.01 
 2450048.83543  -17.4099998474                         2.2 
 2450056.85656  -17.4699993134                   1.4899999 
 2450068.72723  -11.2299995422                        2.21 
 2450088.82031  -19.5300006866                   2.1700001 
  2450326.9375  -17.6299991608                        1.97 
 2450421.89453  -17.8199996948                   2.3499999 
 2450656.97656  -6.61999988556                        1.97 
 2450681.99414  -7.34999990463                   2.1800001 
 2450767.79981            9.25                  16.1200008 
 2450793.74805  -4.55999994278                   2.0799999 
 2450856.64941  -3.55999994278                        2.22 
 2451206.67676   1.03999996185                   3.4100001 
 2451380.98242 -0.330000013113                   3.1300004 
 2451453.90918    3.6400001049                        3.28 
 2451454.95129   6.80000019073                   3.0799999 
 2451482.89941  -8.27000045776                   3.8599999 
 2451496.85982   7.67000007629                        2.24 
 2451536.72967   4.84999990463                        1.88 
 2451881.75977   5.11000013351                   2.9300001 
 2451887.76056   15.2899999619                        2.26 
  2452159.9541   18.7600002289                   2.6200001 
 2452593.86685   24.4699993134                         1.5 
 2452597.85091   8.18999958038                   1.6199999 
 2452598.76329   22.1700000763                   1.9299999 
 2452606.76478   14.8500003815                   1.5500001 
 2452896.98535    13.029999733                   2.1700001 
 2453280.96875   1.78999996185                        1.96 
 2453361.72042   25.5400009155                   2.5999997 
 2453389.68528   23.8700008392                        2.22 
 2453744.68052   23.2800006866                   2.3299999 
 2453751.74609   25.8199996948                   2.6300004 
 2453950.99635   32.3899993896                        1.96 
 2453951.97601           24.25                   1.6700001 
 2453963.86515   26.6200008392                   2.0899999 
 2454071.86218            21.0                   2.4000001 
 2454072.73325   18.3899993896                         2.0 
 2454133.71212   22.0200004578                   2.3199999 
 2454340.97316   19.4500007629                   2.1800001 
  2454373.9523   11.1499996185                        2.21 
 2454784.75788   11.3000001907                        2.46 
 2454848.71211   15.1099996567                   1.7199999 
 2455546.84109  -20.0300006866                        2.05 
  2455843.9769  -55.2099990845                   3.6300001 
  2455846.8337  -49.3800010681                   2.1600001 
