\STAR_ID                                  = "HD 92788"
\DATA_CATEGORY                            = "Planet Radial Velocity Curve"
\NUMBER_OF_POINTS                         = "55"
\TIME_REFERENCE_FRAME                     = "BJD"
\MINIMUM_DATE                             = "2451261.6806"
\DATE_UNITS                               = "days"
\MAXIMUM_DATE                             = "2452712.6280"
\MINIMUM_VALUE                            = "-4580.00"
\VALUE_UNITS                              = "m/s"
\MAXIMUM_VALUE                            = "-4349.00"
\REFERENCE                                = "Mayor et al. 2004 (A&A, 415, 391)"
\BIBCODE                                  = "2004A&A...415..391M"
\TELESCOPE                                = "1.2m Euler Swiss telescope"
\INSTRUMENT                               = "CORALIE"
\WAVELENGTH_CALIBRATION_TECHNIQUE         = "Thorium Argon"
\OBSERVATORY_SITE                         = "ESO La Silla, Chile"
\COLUMN_RADIAL_VELOCITY                   = "Radial velocity relative to barycenter"
\COLUMN_RADIAL_VELOCITY_UNCERTAINTY       = "Uncertainty in RADIAL_VELOCITY"
|          BJD | Radial_Velocity | Radial_Velocity_Uncertainty |
|       double |          double |                      double |
|         days |             m/s |                         m/s |
  2451261.6806          -4497.00                         10.00
  2451271.6406          -4506.00                          5.00
  2451271.6526          -4498.00                          5.00
  2451302.5769          -4529.00                          5.00
  2451305.6112          -4532.00                          5.00
  2451335.4781          -4574.00                          7.00
  2451335.4917          -4565.00                          7.00
  2451481.8666          -4349.00                          7.00
  2451499.8566          -4361.00                          7.00
  2451548.7651          -4447.00                          5.00
  2451549.8231          -4449.00                          5.00
  2451569.8336          -4465.00                          5.00
  2451588.7665          -4484.00                          6.00
  2451612.7526          -4516.00                          6.00
  2451615.7493          -4512.00                          5.00
  2451616.7169          -4512.00                          5.00
  2451619.6431          -4507.00                          6.00
  2451620.6448          -4515.00                          6.00
  2451621.6512          -4526.00                          6.00
  2451622.6734          -4520.00                          6.00
  2451623.7212          -4521.00                          6.00
  2451624.6818          -4523.00                          6.00
  2451625.6259          -4535.00                          6.00
  2451626.6581          -4535.00                          5.00
  2451627.6267          -4522.00                          6.00
  2451628.6160          -4538.00                          5.00
  2451629.6268          -4535.00                          6.00
  2451630.6062          -4531.00                          5.00
  2451631.5930          -4520.00                          5.00
  2451632.5941          -4537.00                          5.00
  2451633.6485          -4538.00                          5.00
  2451640.6756          -4542.00                          5.00
  2451642.6130          -4542.00                          5.00
  2451646.6898          -4553.00                          5.00
  2451665.5172          -4548.00                          6.00
  2451687.5464          -4561.00                          5.00
  2451689.6158          -4558.00                         12.00
  2451702.5253          -4580.00                          9.00
  2451750.4636          -4373.00                         10.00
  2451955.7361          -4526.00                          5.00
  2451963.7459          -4529.00                          4.00
  2451967.7557          -4535.00                          5.00
  2451970.7700          -4541.00                          5.00
  2451975.7050          -4534.00                          4.00
  2451987.7195          -4555.00                          5.00
  2451995.7474          -4573.00                          5.00
  2452050.5129          -4506.00                         11.00
  2452052.5270          -4507.00                          5.00
  2452072.4712          -4414.00                          5.00
  2452087.5018          -4376.00                          5.00
  2452306.8860          -4552.00                          4.00
  2452320.7330          -4558.00                          4.00
  2452373.6455          -4513.00                          4.00
  2452462.4719          -4386.00                          3.00
  2452712.6280          -4457.00                          4.00
