\STAR_ID                                  = "HD 33636"
\DATA_CATEGORY                            = "Planet Radial Velocity Curve"
\NUMBER_OF_POINTS                         = "42"
\TIME_REFERENCE_FRAME                     = "BJD"
\MINIMUM_DATE                             = "2450863.3265"
\DATE_UNITS                               = "days"
\MAXIMUM_DATE                             = "2452723.3095"
\MINIMUM_VALUE                            = "5534.00"
\VALUE_UNITS                              = "m/s"
\MAXIMUM_VALUE                            = "5887.00"
\REFERENCE                                = "Perrier et al. 2003 (A&A, 410, 1039)"
\BIBCODE                                  = "2003A&A...410.1039P"
\TELESCOPE                                = "1.93m"
\INSTRUMENT                               = "ELODIE"
\WAVELENGTH_CALIBRATION_TECHNIQUE         = "Thorium Argon"
\OBSERVATORY_SITE                         = "Observatoire de Haute Provence (OHP), France"
\COLUMN_RADIAL_VELOCITY                   = "Radial velocity relative to barycenter"
\COLUMN_RADIAL_VELOCITY_UNCERTAINTY       = "Uncertainty in RADIAL_VELOCITY"
|          BJD | Radial_Velocity | Radial_Velocity_Uncertainty |
|       double |          double |                      double |
|         days |             m/s |                         m/s |
  2450863.3265           5612.00                          8.00
  2451156.5239           5827.00                         10.00
  2451240.3335           5887.00                         12.00
  2451509.5828           5735.00                          9.00
  2451541.4267           5726.00                         10.00
  2451542.3977           5740.00                         11.00
  2451556.3896           5720.00                          9.00
  2451559.4055           5710.00                          9.00
  2451561.4361           5701.00                         11.00
  2451588.3451           5706.00                         13.00
  2451590.3499           5711.00                          9.00
  2451804.6765           5659.00                         11.00
  2451835.6537           5630.00                         10.00
  2451836.6687           5635.00                         10.00
  2451852.6001           5639.00                         11.00
  2451856.5826           5641.00                         13.00
  2451882.4992           5630.00                         10.00
  2451901.4834           5625.00                         10.00
  2451906.5380           5630.00                         14.00
  2451953.3492           5610.00                         12.00
  2451955.3159           5615.00                         11.00
  2451980.3036           5604.00                         14.00
  2452197.6676           5581.00                         10.00
  2452198.6545           5584.00                          9.00
  2452214.6096           5605.00                         13.00
  2452220.6000           5600.00                         11.00
  2452248.5166           5589.00                         11.00
  2452248.5291           5580.00                         12.00
  2452278.4212           5576.00                         11.00
  2452280.4466           5560.00                          9.00
  2452308.4394           5576.00                         10.00
  2452310.3955           5567.00                         10.00
  2452533.6556           5557.00                         10.00
  2452559.6615           5543.00                         14.00
  2452565.6534           5575.00                         10.00
  2452597.5876           5577.00                         11.00
  2452616.5282           5535.00                          9.00
  2452637.4812           5567.00                         10.00
  2452638.4544           5552.00                         10.00
  2452649.4142           5570.00                         10.00
  2452681.4310           5534.00                         12.00
  2452723.3095           5558.00                         11.00
