\STAR_ID                                  = "HD 169830"
\DATA_CATEGORY                            = "Planet Radial Velocity Curve"
\NUMBER_OF_POINTS                         = "35"
\TIME_REFERENCE_FRAME                     = "BJD"
\MINIMUM_DATE                             = "2451296.792509"
\DATE_UNITS                               = "days"
\MAXIMUM_DATE                             = "2451645.894411"
\MINIMUM_VALUE                            = "-17341.00"
\VALUE_UNITS                              = "m/s"
\MAXIMUM_VALUE                            = "-17148.00"
\REFERENCE                                = "Naef et al. 2001 (A&A, 375, 205)"
\BIBCODE                                  = "2001A&A...375..205N"
\TELESCOPE                                = "1.2m Euler Swiss telescope"
\INSTRUMENT                               = "CORALIE"
\WAVELENGTH_CALIBRATION_TECHNIQUE         = "Thorium Argon"
\OBSERVATORY_SITE                         = "ESO La Silla, Chile"
\COLUMN_RADIAL_VELOCITY                   = "Radial velocity relative to barycenter"
\COLUMN_RADIAL_VELOCITY_UNCERTAINTY       = "Uncertainty in RADIAL_VELOCITY"
|            BJD | Radial_Velocity | Radial_Velocity_Uncertainty |
|         double |          double |                      double |
|           days |             m/s |                         m/s |
  2451296.792509         -17222.00                          8.00
  2451305.891698         -17196.00                          8.00
  2451340.865994         -17169.00                         10.00
  2451365.663447         -17171.00                          8.00
  2451380.714728         -17164.00                          9.00
  2451383.674462         -17168.00                          8.00
  2451383.682761         -17166.00                          8.00
  2451389.490668         -17160.00                         10.00
  2451394.575930         -17173.00                          8.00
  2451397.597512         -17183.00                         17.00
  2451401.691443         -17169.00                          9.00
  2451404.633779         -17167.00                          9.00
  2451424.645933         -17193.00                          9.00
  2451439.511772         -17206.00                          9.00
  2451444.539546         -17214.00                          9.00
  2451450.528252         -17247.00                          9.00
  2451459.485984         -17274.00                         10.00
  2451464.500441         -17288.00                          9.00
  2451480.520294         -17310.00                         11.00
  2451484.505177         -17318.00                         10.00
  2451487.508175         -17341.00                         10.00
  2451492.519768         -17318.00                         11.00
  2451586.880309         -17156.00                          9.00
  2451620.914300         -17148.00                          9.00
  2451625.916354         -17151.00                          9.00
  2451628.907865         -17169.00                          9.00
  2451631.914563         -17168.00                          8.00
  2451632.896037         -17169.00                          8.00
  2451633.910269         -17168.00                          9.00
  2451634.900830         -17177.00                          9.00
  2451635.875880         -17186.00                          9.00
  2451638.888074         -17196.00                          9.00
  2451640.887019         -17173.00                          8.00
  2451642.899366         -17185.00                          9.00
  2451645.894411         -17181.00                          9.00
