\STAR_ID                                  = "ups And"
\DATA_CATEGORY                            = "Planet Radial Velocity Curve"
\NUMBER_OF_POINTS                         = "248"
\TIME_REFERENCE_FRAME                     = "JD"
\MINIMUM_DATE                             = "2447046.922"
\DATE_UNITS                               = "days"
\MAXIMUM_DATE                             = "2452597.740"
\MINIMUM_VALUE                            = "-176.86"
\VALUE_UNITS                              = "m/s"
\MAXIMUM_VALUE                            = "152.96"
\REFERENCE                                = "Fischer et al. 2003 (ApJ, 586, 1394)"
\BIBCODE                                  = "2003ApJ...586.1394F"
\TELESCOPE                                = "3.0m Shane or 0.6m CAT"
\INSTRUMENT                               = "Hamilton spectrograph"
\WAVELENGTH_CALIBRATION_TECHNIQUE         = "Iodine"
\OBSERVATORY_SITE                         = "Lick Observatory, California"
\COLUMN_JD                                = "Julian date of observation"
\COLUMN_RADIAL_VELOCITY                   = "Radial velocity relative to barycenter"
\COLUMN_RADIAL_VELOCITY_UNCERTAINTY       = "Uncertainty in RADIAL_VELOCITY"
|          JD | Radial_Velocity | Radial_Velocity_Uncertainty |
|      double |          double |                      double |
|        days |             m/s |                         m/s |
  2447046.922            133.55                         14.59
  2447093.759            -10.83                         16.70
  2447094.762              5.06                         14.32
  2447149.778           -114.76                         13.11
  2447193.629             -6.33                         10.80
  2448845.965             68.44                         16.70
  2448855.934            117.55                         11.29
  2448891.935             -3.79                          9.89
  2448907.838              9.61                         10.47
  2448933.828             22.19                          9.35
  2448935.848              5.46                         11.06
  2449255.855              6.89                         14.34
  2449298.803            101.21                         10.12
  2449350.706             69.47                         13.54
  2449588.992            -12.36                          9.78
  2449602.962            -44.14                         15.74
  2449622.928             11.45                         16.13
  2449680.753           -122.03                          6.76
  2449942.008             15.07                          9.25
  2449969.979            -13.64                          6.44
  2449984.852            -53.79                          6.74
  2450032.741             37.52                          8.06
  2450056.842             57.42                          6.34
  2450068.586            -58.49                          7.15
  2450068.773            -56.98                          7.67
  2450069.599             23.04                         11.35
  2450072.603            -87.12                          9.82
  2450072.724            -90.65                          8.67
  2450073.652            -60.45                          8.62
  2450080.783            -21.50                         11.37
  2450086.739            -93.88                          9.45
  2450087.689            -25.60                          9.64
  2450088.741             46.47                          8.87
  2450089.710              5.00                          9.00
  2450090.646            -76.97                          5.52
  2450091.663            -81.19                          9.96
  2450299.008              3.34                          9.95
  2450305.992            140.20                          7.98
  2450310.001            108.46                          9.52
  2450310.996            114.75                          8.48
  2450311.984             46.79                          8.26
  2450325.891            -51.30                          8.92
  2450326.914            -28.72                          8.60
  2450327.918             31.97                          7.86
  2450372.958            -45.64                         11.04
  2450373.839             -9.52                          7.54
  2450374.884             71.88                         11.42
  2450376.910            -24.68                         11.39
  2450377.811            -67.76                         10.91
  2450421.568            149.68                          7.31
  2450421.756            138.84                          6.80
  2450437.686             34.78                          6.82
  2450437.870             49.52                         10.38
  2450441.771             42.02                          7.10
  2450640.983            -51.10                          8.92
  2450655.995             72.59                          8.71
  2450656.945            107.65                          8.41
  2450681.982              1.64                          9.27
  2450767.728            102.63                         11.21
  2450793.716            -32.19                          9.12
  2450977.996            -70.20                         11.00
  2450979.992             73.39                          8.79
  2451014.980           -108.37                          7.88
  2451025.971              8.91                          7.82
  2451026.954            -22.16                          7.60
  2451028.007           -122.95                          7.96
  2451045.019             -7.04                          8.28
  2451046.007            -95.49                          9.23
  2451046.985           -149.95                          8.46
  2451047.957            -98.88                          8.18
  2451048.932            -16.27                          5.72
  2451049.917            -32.05                          5.73
  2451074.914           -176.86                          7.97
  2451076.903            -32.78                          8.27
  2451100.904            -95.28                          9.65
  2451101.878           -174.09                          9.66
  2451130.855           -110.87                         10.56
  2451131.799             -7.03                          9.52
  2451132.721              4.40                         10.96
  2451133.840            -81.93                         11.73
  2451154.726              1.48                         10.31
  2451174.670             -3.13                         10.72
  2451175.607            -80.35                         10.12
  2451206.645             33.49                          8.10
  2451212.674           -106.28                         11.47
  2451213.666           -104.67                         10.25
  2451239.635            -46.74                          7.70
  2451240.646           -119.88                          8.01
  2451242.635             -1.45                          7.87
  2451351.984           -116.07                          8.66
  2451353.963             -1.23                         10.33
  2451354.952            -59.22                          9.54
  2451362.979             15.45                          5.67
  2451363.990            -19.63                          7.01
  2451364.975            -88.04                          8.37
  2451375.972              0.86                          8.41
  2451376.995             66.29                          7.94
  2451377.951             35.21                          4.68
  2451378.971            -46.68                          4.55
  2451379.975            -45.52                          4.93
  2451380.963             51.47                          8.10
  2451386.984             72.61                          5.99
  2451387.984             -8.13                          4.97
  2451388.984            -39.42                          5.69
  2451389.988             48.61                          5.84
  2451392.000             42.58                          8.54
  2451392.984            -33.82                          6.20
  2451401.936             19.90                          9.26
  2451402.884              3.10                          6.00
  2451403.920             91.60                          5.71
  2451405.976             66.68                          8.78
  2451406.993             -4.66                          8.16
  2451408.023             40.63                          8.43
  2451409.985            111.33                          7.35
  2451416.785              6.88                          5.82
  2451416.978             19.73                          5.53
  2451417.800             93.70                          6.67
  2451418.935            129.50                          5.23
  2451419.900             57.41                          5.68
  2451425.950              9.33                          6.13
  2451426.953             85.42                          8.88
  2451427.955            151.24                          5.64
  2451428.934             90.52                          7.40
  2451429.973              3.46                          5.93
  2451435.954             82.29                          5.76
  2451436.802            152.96                          7.36
  2451437.975            106.39                          7.66
  2451438.897             39.25                          6.30
  2451439.873             28.56                          5.73
  2451440.856            113.75                          6.82
  2451444.981             64.41                          6.59
  2451445.922            132.73                          6.58
  2451446.943            120.47                          6.46
  2451447.934             31.09                          6.94
  2451453.862             45.87                          6.00
  2451454.808            113.07                          6.64
  2451467.859             27.60                          6.10
  2451468.831            130.35                          5.64
  2451477.863            103.83                         10.23
  2451478.833            120.44                         10.08
  2451481.817             50.22                         13.96
  2451482.802            136.30                          6.28
  2451496.710            128.69                          8.09
  2451500.807             88.41                          9.14
  2451501.706            130.36                          9.11
  2451533.726             83.67                          7.57
  2451539.664             44.16                          7.89
  2451540.687            -40.32                          9.40
  2451542.642             60.70                         10.06
  2451543.636             87.22                         10.12
  2451572.597            -47.93                         10.55
  2451573.661            -72.54                         10.85
  2451581.613            -28.24                         10.09
  2451734.002             25.43                          5.26
  2451738.996             -9.69                          8.03
  2451740.003             -4.24                          8.15
  2451742.988             33.75                          7.44
  2451743.985            -22.70                          7.74
  2451744.986             16.12                          8.56
  2451745.986            101.72                          7.65
  2451746.975             93.70                          9.17
  2451751.001             98.73                          5.14
  2451752.997            -31.13                          4.42
  2451774.947             48.64                          4.34
  2451775.978            -47.74                          4.44
  2451778.956             72.23                          4.39
  2451780.958            -63.49                          4.42
  2451782.979             67.24                          4.90
  2451798.943            -75.43                          6.96
  2451802.946             -4.92                          5.50
  2451803.955            -74.64                          5.45
  2451804.934            -34.43                          5.19
  2451805.875             49.19                          5.88
  2451806.915             52.86                          6.98
  2451813.819            -77.92                          4.74
  2451814.880             13.71                          5.02
  2451815.916             49.94                          7.36
  2451816.800            -12.75                          5.18
  2451822.842            -79.62                          6.97
  2451823.820            -24.87                          5.76
  2451824.863             48.69                          6.00
  2451825.808              1.39                          6.04
  2451826.818            -86.02                          7.58
  2451830.823            -30.34                          7.81
  2451831.783            -86.59                          7.74
  2451837.788             -5.21                          8.37
  2451865.787             92.90                          6.09
  2451866.719            118.74                          7.14
  2451877.763            -13.12                          7.44
  2451881.626             55.72                          5.45
  2451882.628              4.82                          6.74
  2451886.673             44.69                          8.54
  2451887.665              5.92                          7.09
  2451891.763              0.54                          5.94
  2451895.652             23.54                         10.48
  2451896.713             10.03                         11.35
  2452111.937             37.97                          6.32
  2452120.937             76.07                          6.26
  2452121.895             -3.52                          5.78
  2452124.962            101.39                          8.74
  2452129.892             90.76                          5.45
  2452145.907            -38.85                          7.42
  2452146.911             14.19                          5.96
  2452147.824             81.14                          6.46
  2452148.945             62.23                          7.48
  2452156.879             72.90                          7.34
  2452157.908             74.28                          5.22
  2452158.937            -17.08                          5.78
  2452159.898            -41.50                          5.12
  2452160.906             32.03                          8.59
  2452161.901            104.24                          8.66
  2452162.808             56.68                          9.22
  2452167.801             24.63                          6.37
  2452181.823             13.11                          6.60
  2452187.792            -44.83                          5.67
  2452219.819            -91.74                          7.75
  2452221.683             46.22                          7.92
  2452251.638           -128.65                          7.65
  2452256.645           -134.87                          6.84
  2452262.656            -52.03                          7.52
  2452278.616           -110.20                          7.44
  2452281.636            -59.71                          7.09
  2452491.915           -137.32                          5.88
  2452492.963           -105.65                          5.61
  2452493.942            -10.34                          5.33
  2452508.943            -46.00                          5.41
  2452509.857           -124.46                          5.85
  2452511.972            -71.68                          5.27
  2452512.950            -18.24                          5.44
  2452513.943            -88.60                          5.39
  2452515.911           -106.71                          5.75
  2452520.921           -103.64                          6.36
  2452522.889            -59.41                          5.63
  2452524.903           -163.48                          5.91
  2452534.878            -94.64                          5.79
  2452540.927            -46.89                          6.38
  2452552.873           -151.50                          6.82
  2452553.827            -57.16                          6.43
  2452554.814            -36.70                          6.99
  2452563.899            -12.15                          6.04
  2452564.949            -83.83                          5.71
  2452567.018            -81.75                          6.63
  2452570.768           -134.08                          6.80
  2452574.781           -102.86                          7.69
  2452575.733            -89.80                          6.98
  2452593.754            -74.31                          7.09
  2452594.779             -5.51                          6.56
  2452597.740            -49.81                          7.28
