\STAR_ID='HD 131977'
\DATA_CATEGORY='Planet Radial Velocity Curve'
\NUMBER_OF_POINTS='77'
\TIME_REFERENCE_FRAME='HJD'
\MINIMUM_DATE='2449768.0425'
\DATE_UNITS='days'
\MAXIMUM_DATE='2454613.83475'
\MINIMUM_VALUE='-53.2299995'
\VALUE_UNITS='m/s'
\MAXIMUM_VALUE='30.9099998'
\REFERENCE='Howard & Fulton, 2016'
\BIBCODE='2016arXiv160603134H'
\TELESCOPE='3.0m Shane'
\INSTRUMENT='l: Hamilton Spectrograph post-dewar 16 (after November 1994)'
\WAVELENGTH_CALIBRATION_TECHNIQUE='Iodine'
\OBSERVATORY_SITE='Lick Observatory, California'
\COLUMN_RADIAL_VELOCITY='Relative radial velocity'
\COLUMN_RADIAL_VELOCITY_UNCERTAINTY='Uncertainty in RADIAL_VELOCITY'
|          HJD|Radial_Velocity|Radial_Velocity_Uncertainty|
|       double|         double|                     double|
|         days|          m / s|                      m / s|
|         null|           null|                       null|
  2449768.0425      11.1800003                   5.6100001 
 2449794.01465      30.9099998                   2.1700001 
 2449881.85644      16.9699993                   2.1700001 
 2450181.89453       6.9099998                        1.76 
 2450231.83175      22.1351032                   2.4096444 
 2450232.80775      19.1609573                   2.4396658 
  2450233.8797       3.4898109                   3.2716773 
 2450234.86183       8.4553013                   3.1666784 
 2450235.79801      18.6323967                   2.2488704 
  2450263.7041      10.3299999                        1.64 
 2450299.68945      14.8900003                   2.0999999 
  2450504.9939      15.7245636                   1.6332585 
 2450536.90094      24.4260445                    2.575249 
 2450537.93066      12.9300003                   2.6200001 
 2450550.91274      -8.2779512                   2.0749159 
 2450562.95924       11.485116                   2.9248607 
 2450563.85338       6.9400072                   2.1224427 
 2450578.81839      15.6667662                   1.6160173 
 2450579.80564      11.6051712                   1.5699003 
 2450610.73988      10.9287586                   1.4491032 
 2451004.73419       3.6700001                        3.78 
 2451005.73047             0.0                   3.9200001 
 2451006.71875       7.1500001                        3.99 
 2451014.71582            0.57                   5.1799998 
 2451027.67969            7.04                   3.3199999 
 2451044.70508      17.8999996                   5.0100002 
 2451046.67969       6.2600002                   3.5899997 
 2451207.08008           -2.97                   2.8699999 
 2451213.07031      13.6400003                        3.05 
 2451242.99219       3.9400001                   2.6600001 
 2451298.87319      24.3999996                        2.46 
 2451299.78809      11.0299997                        2.28 
 2451303.85156       1.4400001                   2.3499999 
 2451304.80762       9.4399996                   2.1900001 
 2451305.82129       9.7299995                   2.6899998 
 2451351.73926      14.1000004                   3.0899999 
 2451352.72754      14.7799997                   3.1300004 
 2451364.69824       9.9499998                        2.54 
  2451377.7159      -6.6491079                   2.2200112 
 2451378.70698     -15.4783821                   2.0700495 
 2451379.70615      -7.2437038                   2.0858598 
 2451380.70881      -6.5561285                   1.8556614 
 2451387.71182      -4.0761623                    2.379885 
 2451388.70128      -2.0295768                   2.0709181 
  2451389.7025     -10.2260895                   2.3098781 
 2451391.69654       3.5819135                   2.3762732 
 2451392.69759       0.6190386                   2.2536123 
 2451627.88769      11.1300001                   4.3800001 
 2452071.78766      -10.024518                   5.2436323 
 2452072.76367           -1.37                   4.6300001 
 2452073.78605      -4.6086254                   2.2611182 
 2452075.76121      -7.0512018                   1.5056893 
 2453072.93277     -17.8713188                   1.6572973 
 2453120.86265     -12.1754932                   1.8532376 
 2453130.87988     -15.1800003                   2.0599999 
 2453149.86335     -16.4044762                   3.0936422 
 2453391.06565     -30.1000004                   1.9800001 
  2453392.0723     -23.9300003                        1.99 
  2453393.0364     -36.8800011                        1.96 
 2453439.04064     -25.2800827                   1.7111547 
 2453441.02702     -19.3333988                   1.6609789 
 2453514.80112     -29.0900002                   1.8300002 
 2453774.03214     -31.7299995                   2.1400001 
 2453869.83906     -29.4699993                   2.1400001 
 2453896.81954     -27.3999996                   1.9500002 
 2453897.75309     -13.2700005                   3.0799999 
 2453925.71859     -29.9738388                   1.7633706 
 2454134.06181     -43.9599991                        1.99 
 2454136.08554     -41.8600006                   1.9299999 
 2454219.86456     -34.3600006                        2.05 
 2454220.87727     -30.0300007                        1.97 
 2454253.83639       -30.66362                   1.4848737 
 2454547.97618     -28.2299995                        2.47 
 2454574.88271     -53.2299995                        2.05 
 2454606.81292           -31.0                   2.1400001 
  2454612.8258     -27.3799992                        3.71 
 2454613.83475     -23.7000008                   2.6500001 
