\STAR_ID                                  = "Ups And"
\DATA_CATEGORY                            = "Planet Radial Velocity Curve"
\NUMBER_OF_POINTS                         = "71"
\TIME_REFERENCE_FRAME                     = "BJD"
\MINIMUM_DATE                             = "2450319.4928"
\DATE_UNITS                               = "days"
\MAXIMUM_DATE                             = "2452885.5724"
\MINIMUM_VALUE                            = "-28809.00"
\VALUE_UNITS                              = "m/s"
\MAXIMUM_VALUE                            = "-28515.00"
\REFERENCE                                = "Naef et al. 2004 (A&A, 414, 351)"
\BIBCODE                                  = "2004A&A...414..351N"
\TELESCOPE                                = "1.93m"
\INSTRUMENT                               = "ELODIE"
\WAVELENGTH_CALIBRATION_TECHNIQUE         = "Thorium Argon"
\OBSERVATORY_SITE                         = "Obsevatoire de Haute Provence (OHP), France"
\COLUMN_RADIAL_VELOCITY                   = "Radial velocity relative to barycenter"
\COLUMN_RADIAL_VELOCITY_UNCERTAINTY       = "Uncertainty in RADIAL_VELOCITY"
|          BJD | Radial_Velocity | Radial_Velocity_Uncertainty |
|       double |          double |                      double |
|         days |             m/s |                         m/s |
  2450319.4928         -28542.00                          8.00
  2450320.4366         -28543.00                          7.00
  2450324.5651         -28520.00                          8.00
  2450324.5720         -28517.00                          8.00
  2450325.5264         -28612.00                          8.00
  2450325.5323         -28612.00                          7.00
  2450325.6479         -28619.00                          7.00
  2450325.6533         -28624.00                          7.00
  2450326.5842         -28678.00                          8.00
  2450326.5892         -28668.00                         10.00
  2450327.5345         -28634.00                          8.00
  2450327.5430         -28637.00                          7.00
  2450327.6712         -28631.00                          7.00
  2450328.5435         -28516.00                          8.00
  2450328.5596         -28532.00                          8.00
  2450329.4916         -28543.00                          7.00
  2450329.4965         -28551.00                          7.00
  2450329.6192         -28568.00                          8.00
  2450380.4722         -28624.00                          8.00
  2450381.4117         -28730.00                          8.00
  2450382.4313         -28736.00                          7.00
  2450384.3418         -28601.00                          7.00
  2450385.3961         -28630.00                          9.00
  2450447.3669         -28627.00                          9.00
  2450476.2844         -28524.00                          8.00
  2450479.2641         -28683.00                          7.00
  2450700.6070         -28649.00                          8.00
  2450701.6122         -28598.00                          8.00
  2450702.5707         -28515.00                          7.00
  2450730.5038         -28545.00                          8.00
  2450733.5478         -28687.00                         10.00
  2450735.5035         -28544.00                         11.00
  2450797.3255         -28741.00                          8.00
  2450821.3223         -28768.00                          7.00
  2450823.3477         -28657.00                          7.00
  2450825.3497         -28809.00                          8.00
  2450825.3547         -28801.00                          8.00
  2450825.4021         -28768.00                         11.00
  2450859.2763         -28709.00                          8.00
  2450863.2778         -28778.00                          8.00
  2451053.6222         -28660.00                          9.00
  2451118.4635         -28706.00                          9.00
  2451118.4690         -28684.00                         10.00
  2451122.4978         -28709.00                         11.00
  2451152.3842         -28758.00                         12.00
  2451155.3457         -28612.00                         13.00
  2451158.3708         -28760.00                          9.00
  2451174.2994         -28634.00                         12.00
  2451420.6150         -28623.00                          8.00
  2451421.6332         -28623.00                          8.00
  2451439.5607         -28630.00                          8.00
  2451505.4202         -28585.00                          8.00
  2451508.4294         -28673.00                          7.00
  2451511.5250         -28564.00                          9.00
  2451556.3543         -28645.00                          8.00
  2451559.3682         -28743.00                          7.00
  2451561.3401         -28604.00                          8.00
  2451587.2654         -28746.00                          9.00
  2451590.2544         -28636.00                          8.00
  2451808.5310         -28743.00                          9.00
  2451852.4633         -28573.00                         10.00
  2451882.3859         -28670.00                          8.00
  2452159.6317         -28693.00                          8.00
  2452160.6492         -28638.00                          8.00
  2452162.5376         -28571.00                          8.00
  2452216.4137         -28664.00                          7.00
  2452218.4181         -28658.00                          7.00
  2452249.3539         -28676.00                          8.00
  2452250.3273         -28667.00                          9.00
  2452531.5868         -28707.00                          8.00
  2452885.5724         -28540.00                          8.00
