\STAR_ID='HD 114710'
\DATA_CATEGORY='Planet Radial Velocity Curve'
\NUMBER_OF_POINTS='66'
\TIME_REFERENCE_FRAME='HJD'
\MINIMUM_DATE='2449770.05038'
\DATE_UNITS='days'
\MAXIMUM_DATE='2454865.03764'
\MINIMUM_VALUE='-27.6700001'
\VALUE_UNITS='m/s'
\MAXIMUM_VALUE='28.8200302'
\REFERENCE='Howard & Fulton, 2016'
\BIBCODE='2016arXiv160603134H'
\TELESCOPE='3.0m Shane'
\INSTRUMENT='l: Hamilton Spectrograph post-dewar 16 (after November 1994)'
\WAVELENGTH_CALIBRATION_TECHNIQUE='Iodine'
\OBSERVATORY_SITE='Lick Observatory, California'
\COLUMN_RADIAL_VELOCITY='Relative radial velocity'
\COLUMN_RADIAL_VELOCITY_UNCERTAINTY='Uncertainty in RADIAL_VELOCITY'
|          HJD|Radial_Velocity|Radial_Velocity_Uncertainty|
|       double|         double|                     double|
|         days|          m / s|                      m / s|
|         null|           null|                       null|
 2449770.05038      17.6269264                   1.5499496 
 2449793.99104       12.692852                   1.2000349 
 2449881.70237       1.8301264                    1.241726 
 2450090.93262       5.9299998                        2.46 
 2450202.78304      28.8200302                   1.8303831 
 2450231.79911      17.7631989                        2.28 
 2450262.69531             0.0                   2.5599999 
 2450438.09082      -2.5899999                        2.76 
 2450502.94824       3.1600001                        2.55 
 2450503.93652      -8.0699997                   2.6700001 
 2450614.74902      -4.3299999                   3.1099999 
 2451304.76074       8.8299999                   2.6400003 
 2451627.86523      20.1000004                   3.4599998 
 2451947.01074           11.79                   3.9100001 
 2452041.81818      12.3109894                   2.1113775 
 2452268.07779      -0.9500606                    1.873673 
 2452334.93457      15.1800003                        3.54 
 2452335.95508           -2.29                        2.72 
 2452345.90379      13.9067268                   2.1477029 
  2452348.9145      27.2429314                   2.1707833 
 2452375.84698       3.8974433                   2.1707833 
 2452389.76099     -16.4987106                   2.0535769 
  2452449.7229       0.9779631                   2.1547058 
 2452738.87638       -9.414114                   2.0059001 
 2453021.02246       6.1500001                   2.6700001 
 2453080.91602     -16.6700001                        2.53 
 2453131.74219       3.0799999                        2.52 
 2453132.76562            1.08                   2.6800001 
 2453361.07379      -9.2399998                   2.4100001 
 2453363.03753      -15.881237                   1.8477262 
 2453387.02639      20.5499992                   4.1799998 
 2453389.03598     -14.8800001                   2.6700001 
 2453403.00424            0.53                   2.5699999 
 2453404.03527      -9.9799995                   2.6800001 
 2453405.02799     -17.8099995                   2.5799999 
 2453406.03868     -12.3400002                        2.52 
 2453406.98465       7.2992887                   2.1122167 
 2453437.94522     -23.9899998                   2.9799998 
 2453438.91641     -20.2199993                   3.0199997 
 2453439.92598     -13.2399998                   2.8699999 
 2453440.82903      -7.4699998                        2.76 
 2453441.91557     -17.6499996                   3.0199997 
 2453460.87891      10.6999998                   2.8900001 
 2453475.76162           -7.27                   3.1700001 
 2453476.74582      -7.9899998                   2.6700001 
 2453477.76478      -5.3299999                        2.73 
 2453478.79067      -4.1100001                   2.8499999 
 2453479.80524     -27.6700001                   2.9200001 
 2453501.78572       6.2399998                   2.5799999 
 2453512.74255      10.9200001                        2.55 
 2453523.73428      -7.4000001                        2.76 
 2453540.73711       7.8499999                   3.4200001 
 2453541.74737      17.9300003                        2.99 
 2453745.06285      -5.2800002                   2.5599999 
 2453756.07561     -20.0200005                   2.9300001 
 2453868.75583     -19.8600006                   2.4000001 
  2454102.0916      -5.7600002                        2.51 
 2454104.09045     -14.0100002                   2.6800001 
 2454134.01869      -6.0999999                   2.6800001 
 2454135.92193      -1.6906368                   1.1443437 
 2454165.95045      -5.6199999                   2.9699998 
 2454548.86601       6.9200001                   2.7500002 
 2454606.75491     -11.6599998                        2.26 
  2454609.8577      -2.3099999                        2.71 
 2454612.79668      -1.9299999                        2.78 
 2454865.03764       9.6361322                    3.537277 
