\STAR_ID                                  = "HD 28185"
\DATA_CATEGORY                            = "Planet Radial Velocity Curve"
\NUMBER_OF_POINTS                         = "40"
\TIME_REFERENCE_FRAME                     = "BJD"
\MINIMUM_DATE                             = "2451462.874373"
\DATE_UNITS                               = "days"
\MAXIMUM_DATE                             = "2452167.868363"
\MINIMUM_VALUE                            = "50183.00"
\VALUE_UNITS                              = "m/s"
\MAXIMUM_VALUE                            = "50432.00"
\REFERENCE                                = "Santos et al. 2001 (A&A, 379, 999)"
\BIBCODE                                  = "2001A&A...379..999S"
\TELESCOPE                                = "1.2m Euler Swiss telescope"
\INSTRUMENT                               = "CORALIE"
\WAVELENGTH_CALIBRATION_TECHNIQUE         = "Thorium Argon"
\OBSERVATORY_SITE                         = "ESO La Silla, Chile"
\COLUMN_RADIAL_VELOCITY                   = "Radial velocity relative to barycenter"
\COLUMN_RADIAL_VELOCITY_UNCERTAINTY       = "Uncertainty in RADIAL_VELOCITY"
|            BJD | Radial_Velocity | Radial_Velocity_Uncertainty |
|         double |          double |                      double |
|           days |             m/s |                         m/s |
  2451462.874373          50432.00                          7.00
  2451484.784019          50431.00                          6.00
  2451494.747676          50427.00                          6.00
  2451505.732571          50427.00                          5.00
  2451546.673295          50344.00                          7.00
  2451547.654491          50332.00                          6.00
  2451574.603090          50261.00                          7.00
  2451578.607491          50263.00                          8.00
  2451607.510899          50183.00                          6.00
  2451787.844881          50265.00                          8.00
  2451788.869121          50275.00                          6.00
  2451789.803956          50273.00                          6.00
  2451793.823268          50265.00                         16.00
  2451794.895567          50284.00                          5.00
  2451795.785593          50287.00                          9.00
  2451809.898224          50330.00                          5.00
  2451837.846219          50389.00                          6.00
  2451838.817086          50383.00                          6.00
  2451839.816485          50398.00                          6.00
  2451844.817184          50411.00                          7.00
  2451859.731278          50400.80                          6.00
  2451863.731040          50408.80                          5.00
  2451869.654750          50417.60                          5.00
  2451898.680388          50399.30                          5.00
  2451908.692698          50389.20                          5.00
  2451909.709231          50387.90                          5.00
  2451924.650091          50345.60                          7.00
  2451924.661711          50344.50                          7.00
  2451925.672857          50343.40                          5.00
  2451957.531161          50286.10                          7.00
  2451965.548776          50242.60                          5.00
  2451967.541951          50259.90                          9.00
  2451969.526771          50233.70                          5.00
  2451971.512842          50242.90                          8.00
  2451976.504903          50239.50                          7.00
  2451979.508627          50205.40                          6.00
  2451981.519564          50205.20                          5.00
  2451985.544407          50200.40                          6.00
  2451985.552728          50192.20                          7.00
  2452167.868363          50274.10                          5.00
