\STAR_ID                                  = "GJ 876"
\DATA_CATEGORY                            = "Planet Radial Velocity Curve"
\NUMBER_OF_POINTS                         = "113"
\TIME_REFERENCE_FRAME                     = "JD"
\MINIMUM_DATE                             = "2450602.093"
\DATE_UNITS                               = "days"
\MAXIMUM_DATE                             = "2452988.724"
\MINIMUM_VALUE                            = "-281.799"
\VALUE_UNITS                              = "m/s"
\MAXIMUM_VALUE                            = "311.515"
\REFERENCE                                = "Laughlin et al. 2005 (ApJ, 622, 1182)"
\BIBCODE                                  = "2005ApJ...622.1182L"
\TELESCOPE                                = "10m Keck I"
\INSTRUMENT                               = "HIRES"
\WAVELENGTH_CALIBRATION_TECHNIQUE         = "Iodine"
\OBSERVATORY_SITE                         = "Mauna Kea, Hawaii"
\COLUMN_JD                                = "Julian date of observation"
\COLUMN_RADIAL_VELOCITY                   = "Radial velocity relative to barycenter"
\COLUMN_RADIAL_VELOCITY_UNCERTAINTY       = "Uncertainty in RADIAL_VELOCITY"
|          JD | Radial_Velocity | Radial_Velocity_Uncertainty |
|      double |          double |                      double |
|        days |             m/s |                         m/s |
  2450602.093           275.000                       4.83744
  2450603.108           293.541                       4.87634
  2450604.118           283.094                       4.67169
  2450605.110           280.726                       5.52761
  2450606.111           263.544                       4.98461
  2450607.085           233.736                       4.69071
  2450609.116           150.489                       5.45623
  2450666.050           280.291                       5.21384
  2450690.007          -166.391                       5.10688
  2450715.965           143.299                       4.61302
  2450785.704           311.515                       8.24044
  2450983.046          -105.733                       4.95257
  2450984.094          -123.184                       5.06684
  2451010.045          -94.0837                       4.60856
  2451011.102          -73.0974                       3.64249
  2451011.986          -45.1522                       2.97916
  2451013.089          -18.1096                       5.04988
  2451013.965           1.82459                       3.41393
  2451043.020          -88.9192                       4.74611
  2451044.000          -115.336                       4.14800
  2451050.928          -159.471                       4.70908
  2451052.003          -144.716                       5.26416
  2451068.877          -132.122                       4.85189
  2451069.984          -103.148                       4.23548
  2451070.966          -109.364                       4.57718
  2451071.878          -78.1619                       4.73338
  2451072.938          -62.7263                       4.78583
  2451170.704          -125.859                       6.25166
  2451171.692          -134.732                       6.13061
  2451172.703          -114.607                       5.41503
  2451173.701          -110.987                       6.15440
  2451312.127          -145.816                       4.74986
  2451313.117          -147.122                       5.23696
  2451343.041           30.2319                       4.84609
  2451368.001          -194.527                       4.32588
  2451369.002          -198.763                       4.71886
  2451370.060          -178.623                       4.44845
  2451372.059          -175.318                       8.09112
  2451409.987          -92.8259                       4.43375
  2451410.949          -92.9346                       4.29902
  2451411.922          -105.284                       4.83919
  2451438.802          -72.3787                       4.40473
  2451543.702          -155.604                       6.97488
  2451550.702          -195.472                       6.43277
  2451704.103           107.247                       4.76474
  2451706.108           60.9448                       5.38786
  2451755.980           251.808                       7.45259
  2451757.038           233.575                       5.95792
  2451792.822          -220.933                       4.59942
  2451883.725           171.247                       5.53578
  2451897.682           39.5285                       6.05218
  2451898.706           37.9805                       5.67651
  2451899.724           27.5835                       6.14660
  2451900.704           11.2978                       5.16144
  2452063.099           197.931                       5.85069
  2452095.024          -242.481                       5.64944
  2452098.051          -281.799                       5.68766
  2452099.095          -267.919                       5.08161
  2452100.066          -275.558                       5.42508
  2452101.991          -254.637                       5.08017
  2452128.915           122.199                       6.13512
  2452133.018           55.8623                       5.23130
  2452133.882           59.7818                       5.75232
  2452160.896          -256.467                       5.11438
  2452161.862          -269.742                       5.63196
  2452162.880          -237.342                       5.50410
  2452188.909           95.7486                       5.98643
  2452189.808           99.2101                       6.39510
  2452236.694           164.781                       6.22869
  2452238.696           187.889                       5.50345
  2452242.713           197.089                       6.73589
  2452446.071           75.3063                       6.21285
  2452486.917           185.162                       3.98475
  2452487.124           174.897                       3.63466
  2452487.919           171.914                       4.32865
  2452488.127           170.714                       3.83680
  2452488.945           149.798                       2.28548
  2452514.867          -129.741                       5.24131
  2452515.873          -156.261                       4.97779
  2452535.774           32.8722                       5.56979
  2452536.024           41.7095                       5.54259
  2452536.804           74.7051                       6.10848
  2452537.013           66.7469                       4.94657
  2452537.812           76.0011                       5.38256
  2452538.014           83.6270                       5.03001
  2452538.801           107.662                       4.73423
  2452539.921           123.450                       5.36501
  2452572.713          -43.1787                       4.71435
  2452572.919          -53.0618                       5.07898
  2452573.742          -66.6653                       4.44116
  2452573.878          -73.8528                       4.31492
  2452574.763          -112.285                       4.29373
  2452574.940          -116.120                       4.66948
  2452575.719          -136.679                       4.42299
  2452600.751           118.311                       3.86951
  2452601.750           125.363                       3.89455
  2452602.721           147.247                       4.25502
  2452651.718          -129.194                       8.13000
  2452807.028           148.787                       5.36857
  2452829.008          -254.556                       4.39146
  2452832.080          -180.797                       4.86352
  2452833.963          -135.235                       4.79979
  2452835.085          -100.468                       4.85671
  2452848.999           141.070                       6.62912
  2452850.001           127.450                       6.13066
  2452851.057           121.834                       5.86209
  2452854.007           84.0791                       5.10877
  2452856.016           112.441                       5.21600
  2452897.826          -55.1842                       4.93230
  2452898.815          -26.9680                       4.83134
  2452924.795           215.024                       5.67363
  2452987.716           198.162                       7.74271
  2452988.724           194.946                       5.98031
