\STAR_ID                                  = "HD 111232"
\DATA_CATEGORY                            = "Planet Radial Velocity Curve"
\NUMBER_OF_POINTS                         = "38"
\TIME_REFERENCE_FRAME                     = "BJD"
\MINIMUM_DATE                             = "2451613.8535"
\DATE_UNITS                               = "days"
\MAXIMUM_DATE                             = "2452794.5803"
\MINIMUM_VALUE                            = "104262.00"
\VALUE_UNITS                              = "m/s"
\MAXIMUM_VALUE                            = "104545.00"
\REFERENCE                                = "Mayor et al. 2004 (A&A, 415, 391)"
\BIBCODE                                  = "2004A&A...415..391M"
\TELESCOPE                                = "1.2m Euler Swiss telescope"
\INSTRUMENT                               = "CORALIE"
\WAVELENGTH_CALIBRATION_TECHNIQUE         = "Thorium Argon"
\OBSERVATORY_SITE                         = "ESO La Silla, Chile"
\COLUMN_RADIAL_VELOCITY                   = "Radial velocity relative to barycenter"
\COLUMN_RADIAL_VELOCITY_UNCERTAINTY       = "Uncertainty in RADIAL_VELOCITY"
|          BJD | Radial_Velocity | Radial_Velocity_Uncertainty |
|       double |          double |                      double |
|         days |             m/s |                         m/s |
  2451613.8535         104305.00                          8.00
  2451969.8549         104497.00                          6.00
  2451973.7622         104518.00                          6.00
  2451976.7702         104522.00                          6.00
  2451977.8117         104513.00                          6.00
  2451979.7751         104524.00                          5.00
  2452000.7091         104526.00                          8.00
  2452047.6212         104528.00                          8.00
  2452047.6329         104545.00                          9.00
  2452321.7821         104435.00                          4.00
  2452323.8666         104441.00                          4.00
  2452343.7473         104417.00                          4.00
  2452359.6806         104387.00                          5.00
  2452363.7162         104387.00                          6.00
  2452365.7611         104387.00                          5.00
  2452366.7404         104388.00                          5.00
  2452368.7679         104377.00                          5.00
  2452373.7666         104391.00                          5.00
  2452404.6308         104327.00                          5.00
  2452433.5627         104307.00                          6.00
  2452434.6124         104281.00                          5.00
  2452450.6106         104293.00                          6.00
  2452463.5362         104278.00                          6.00
  2452647.8432         104263.00                          6.00
  2452648.8505         104262.00                          5.00
  2452668.8210         104264.00                          5.00
  2452685.7781         104278.00                          5.00
  2452688.8399         104269.00                          5.00
  2452712.7850         104298.00                          6.00
  2452713.7223         104278.00                          9.00
  2452714.7837         104281.00                          5.00
  2452715.8048         104285.00                          5.00
  2452716.7856         104279.00                          5.00
  2452717.7380         104289.00                          5.00
  2452776.5881         104324.00                         11.00
  2452788.5016         104322.00                          6.00
  2452788.5136         104329.00                          6.00
  2452794.5803         104337.00                         10.00
