\STAR_ID                                  = "HD 6434"
\DATA_CATEGORY                            = "Planet Radial Velocity Curve"
\NUMBER_OF_POINTS                         = "130"
\TIME_REFERENCE_FRAME                     = "BJD"
\MINIMUM_DATE                             = "2451142.6802"
\DATE_UNITS                               = "days"
\MAXIMUM_DATE                             = "2452643.5488"
\MINIMUM_VALUE                            = "22962.00"
\VALUE_UNITS                              = "m/s"
\MAXIMUM_VALUE                            = "23082.00"
\REFERENCE                                = "Mayor et al. 2004 (A&A, 415, 391)"
\BIBCODE                                  = "2004A&A...415..391M"
\TELESCOPE                                = "1.2m Euler Swiss telescope"
\INSTRUMENT                               = "CORALIE"
\WAVELENGTH_CALIBRATION_TECHNIQUE         = "Thorium Argon"
\OBSERVATORY_SITE                         = "ESO La Silla, Chile"
\COLUMN_RADIAL_VELOCITY                   = "Radial velocity relative to barycenter"
\COLUMN_RADIAL_VELOCITY_UNCERTAINTY       = "Uncertainty in RADIAL_VELOCITY"
|          BJD | Radial_Velocity | Radial_Velocity_Uncertainty |
|       double |          double |                      double |
|         days |             m/s |                         m/s |
  2451142.6802          22987.00                          7.00
  2451181.5618          22984.00                         13.00
  2451388.9163          23031.00                         12.00
  2451432.8003          23045.00                         10.00
  2451446.7394          22996.00                         12.00
  2451446.7727          22996.00                         11.00
  2451454.7340          23022.00                          8.00
  2451454.7476          23033.00                          9.00
  2451455.7867          23059.00                         11.00
  2451464.6979          23022.00                          7.00
  2451480.6649          23020.00                         12.00
  2451480.6785          23053.00                         10.00
  2451485.6452          23033.00                          7.00
  2451485.6587          23040.00                          7.00
  2451490.5891          22971.00                         10.00
  2451490.6025          23006.00                         10.00
  2451496.5696          23012.00                          9.00
  2451496.5831          23019.00                          8.00
  2451497.6153          23026.00                          8.00
  2451497.6331          23021.00                          7.00
  2451498.6244          23028.00                          6.00
  2451498.6388          23040.00                          6.00
  2451503.5636          23030.00                          6.00
  2451503.5817          23034.00                          6.00
  2451541.5773          23027.00                          8.00
  2451550.5720          23046.00                          9.00
  2451551.5993          23037.00                          7.00
  2451552.5597          23029.00                          6.00
  2451554.5609          22999.00                          7.00
  2451562.5475          23003.00                          7.00
  2451568.5513          23062.00                          8.00
  2451570.5400          23062.00                          7.00
  2451570.5536          23036.00                          7.00
  2451571.5637          23067.00                          9.00
  2451573.5364          23023.00                          8.00
  2451574.5367          23054.00                         12.00
  2451576.5360          23030.00                         10.00
  2451578.5464          23001.00                         10.00
  2451579.5338          22962.00                          8.00
  2451579.5604          22983.00                          8.00
  2451581.5683          22985.00                          7.00
  2451583.5305          23002.00                          6.00
  2451583.5441          23032.00                          7.00
  2451585.5272          23012.00                          7.00
  2451587.5236          23037.00                          8.00
  2451587.5372          23063.00                          9.00
  2451619.4978          23052.00                         12.00
  2451619.5113          23063.00                         14.00
  2451748.8797          23077.00                         11.00
  2451748.8931          23082.00                         11.00
  2451749.8854          23038.00                          6.00
  2451749.8988          23041.00                          6.00
  2451750.8909          23023.00                          7.00
  2451750.9043          23027.00                          7.00
  2451751.9114          23006.00                          7.00
  2451751.9247          23022.00                          7.00
  2451752.9153          22995.00                          7.00
  2451752.9286          23001.00                          7.00
  2451753.8854          22987.00                          7.00
  2451753.8989          22990.00                          7.00
  2451754.9127          22999.00                          9.00
  2451754.9260          22992.00                         10.00
  2451755.8851          22989.00                          9.00
  2451755.8984          22992.00                          9.00
  2451756.8749          22981.00                          9.00
  2451756.8884          22995.00                          8.00
  2451757.9161          22992.00                          9.00
  2451757.9294          23006.00                          9.00
  2451758.8781          23009.00                          7.00
  2451758.8923          22996.00                          7.00
  2451759.9056          23007.00                          8.00
  2451759.9188          23008.00                          8.00
  2451774.8553          23010.00                          7.00
  2451774.8686          22989.00                          7.00
  2451776.8028          22974.00                          8.00
  2451776.8161          22989.00                          9.00
  2451777.8503          22977.00                          9.00
  2451777.8636          22994.00                          8.00
  2451778.8138          22978.00                         11.00
  2451778.8273          22989.00                         10.00
  2451780.7002          22990.00                         10.00
  2451780.7145          22981.00                         11.00
  2451782.8500          23009.00                          7.00
  2451782.8643          23014.00                          8.00
  2451783.7195          23048.00                          7.00
  2451783.7339          23018.00                          7.00
  2451784.7033          23033.00                          7.00
  2451784.7175          23049.00                          7.00
  2451785.7744          23033.00                          7.00
  2451785.7877          23039.00                          7.00
  2451786.8129          23049.00                          7.00
  2451786.8263          23052.00                          7.00
  2451788.8254          23056.00                         10.00
  2451789.7401          23056.00                          6.00
  2451789.7533          23049.00                          6.00
  2451790.8251          23044.00                          7.00
  2451790.8383          23040.00                          7.00
  2451791.6562          23060.00                          8.00
  2451791.6684          23059.00                          8.00
  2451793.7328          23048.00                         11.00
  2451793.7461          23045.00                         10.00
  2451804.8092          23023.00                          7.00
  2451804.8224          23016.00                          7.00
  2451806.7588          23041.00                          9.00
  2451806.7721          23040.00                         10.00
  2451836.7011          23037.00                          7.00
  2451836.7188          23030.00                          7.00
  2451838.6863          23025.00                          8.00
  2451838.6997          23022.00                          8.00
  2451861.6053          23005.00                          7.00
  2451861.6178          23031.00                          7.00
  2451868.6314          23001.00                          7.00
  2451868.6448          23000.00                          7.00
  2451896.5830          23045.00                         11.00
  2451899.5464          23048.00                          7.00
  2451901.6061          23052.00                          6.00
  2451912.5489          23000.00                          6.00
  2451915.5659          23045.00                          6.00
  2451918.5669          23041.00                          9.00
  2451921.5544          23060.00                         11.00
  2451922.5557          23060.00                         10.00
  2452129.8781          22993.00                          6.00
  2452129.8914          22979.00                          6.00
  2452162.7744          23054.00                          6.00
  2452190.7725          23032.00                          5.00
  2452221.6414          23002.00                          6.00
  2452221.6547          23014.00                          6.00
  2452486.8383          23008.00                          8.00
  2452486.8525          23013.00                          8.00
  2452643.5488          23039.00                          6.00
