\STAR_ID                                  = "HD 121504"
\DATA_CATEGORY                            = "Planet Radial Velocity Curve"
\NUMBER_OF_POINTS                         = "100"
\TIME_REFERENCE_FRAME                     = "BJD"
\MINIMUM_DATE                             = "2451299.7398"
\DATE_UNITS                               = "days"
\MAXIMUM_DATE                             = "2452796.6429"
\MINIMUM_VALUE                            = "19527.00"
\VALUE_UNITS                              = "m/s"
\MAXIMUM_VALUE                            = "19697.00"
\REFERENCE                                = "Mayor et al. 2004 (A&A, 415, 391)"
\BIBCODE                                  = "2004A&A...415..391M"
\TELESCOPE                                = "1.2m Euler Swiss telescope"
\INSTRUMENT                               = "CORALIE"
\WAVELENGTH_CALIBRATION_TECHNIQUE         = "Thorium Argon"
\OBSERVATORY_SITE                         = "ESO La Silla, Chile"
\COLUMN_RADIAL_VELOCITY                   = "Radial velocity relative to barycenter"
\COLUMN_RADIAL_VELOCITY_UNCERTAINTY       = "Uncertainty in RADIAL_VELOCITY"
|          BJD | Radial_Velocity | Radial_Velocity_Uncertainty |
|       double |          double |                      double |
|         days |             m/s |                         m/s |
  2451299.7398          19563.00                          6.00
  2451308.7203          19542.00                          6.00
  2451308.7324          19540.00                          6.00
  2451393.4965          19615.00                          5.00
  2451610.8848          19636.00                          6.00
  2451614.8687          19601.00                          7.00
  2451615.8509          19589.00                          6.00
  2451616.8393          19588.00                          6.00
  2451619.7683          19566.00                          5.00
  2451620.8294          19563.00                          6.00
  2451621.7113          19565.00                          6.00
  2451622.7400          19568.00                          6.00
  2451623.8278          19569.00                          7.00
  2451624.7265          19573.00                          8.00
  2451625.7093          19575.00                          6.00
  2451626.7575          19563.00                          5.00
  2451627.7305          19559.00                          5.00
  2451628.7165          19572.00                          6.00
  2451630.7085          19569.00                          6.00
  2451631.6595          19578.00                          6.00
  2451632.6534          19590.00                          5.00
  2451633.7008          19584.00                          5.00
  2451634.6902          19590.00                          7.00
  2451635.7176          19606.00                          6.00
  2451638.7299          19594.00                          6.00
  2451639.6765          19617.00                          6.00
  2451640.7417          19615.00                          5.00
  2451641.7110          19626.00                          6.00
  2451642.6778          19627.00                          5.00
  2451643.7995          19626.00                          6.00
  2451644.7644          19634.00                          6.00
  2451645.7120          19642.00                          6.00
  2451646.8171          19643.00                          5.00
  2451665.6977          19618.00                          6.00
  2451670.7388          19611.00                          6.00
  2451674.7029          19606.00                          8.00
  2451674.7145          19598.00                          7.00
  2451675.5861          19598.00                          8.00
  2451675.5977          19616.00                          7.00
  2451683.5357          19569.00                          9.00
  2451683.5474          19592.00                          9.00
  2451687.5390          19562.00                          6.00
  2451689.6543          19567.00                          9.00
  2451691.6782          19565.00                          9.00
  2451692.6596          19558.00                          6.00
  2451694.5863          19574.00                          6.00
  2451696.5103          19575.00                         11.00
  2451698.5018          19596.00                          8.00
  2451700.6126          19590.00                          7.00
  2451702.5842          19604.00                          7.00
  2451746.5275          19563.00                          8.00
  2451749.5099          19557.00                          5.00
  2451750.5256          19546.00                          7.00
  2451753.5253          19558.00                          6.00
  2451758.5753          19567.00                          9.00
  2451782.5793          19653.00                         12.00
  2451784.4775          19687.00                         12.00
  2451955.8752          19613.00                          6.00
  2451956.8794          19620.00                          5.00
  2451963.8205          19652.00                          5.00
  2451976.8653          19664.00                          6.00
  2451979.8076          19662.00                          6.00
  2451979.8193          19669.00                          5.00
  2451984.8881          19629.00                          6.00
  2451984.8998          19633.00                          6.00
  2451985.7624          19640.00                          6.00
  2451985.7741          19646.00                          6.00
  2451997.7548          19572.00                          9.00
  2452053.6157          19606.00                          7.00
  2452073.6579          19527.00                          9.00
  2452073.6695          19547.00                          8.00
  2452082.5539          19582.00                          7.00
  2452082.5656          19588.00                          7.00
  2452087.6258          19623.00                          7.00
  2452309.8427          19606.00                          5.00
  2452310.8167          19608.00                          5.00
  2452312.8544          19584.00                          5.00
  2452313.8516          19581.00                          5.00
  2452315.8378          19580.00                          5.00
  2452318.8614          19571.00                          4.00
  2452321.8531          19555.00                          4.00
  2452345.7891          19674.00                          4.00
  2452345.8024          19656.00                          4.00
  2452345.8894          19661.00                          5.00
  2452345.9028          19665.00                          5.00
  2452411.6946          19680.00                         13.00
  2452433.6110          19608.00                          6.00
  2452433.6251          19609.00                          6.00
  2452438.6149          19581.00                          6.00
  2452438.6286          19593.00                          6.00
  2452454.5990          19564.00                          6.00
  2452454.6131          19569.00                          6.00
  2452668.8453          19682.00                          5.00
  2452668.8574          19697.00                          5.00
  2452687.7856          19617.00                          5.00
  2452712.8134          19608.00                          7.00
  2452794.6000          19667.00                          9.00
  2452794.6120          19689.00                          9.00
  2452796.6310          19657.00                          6.00
  2452796.6429          19665.00                          6.00
