\STAR_ID                                  = "TW Hya"
\DATA_CATEGORY                            = "Planet Radial Velocity Curve"
\NUMBER_OF_POINTS                         = "66"
\TIME_REFERENCE_FRAME                     = "JD"
\MINIMUM_DATE                             = "2454158.87483"
\DATE_UNITS                               = "days"
\MAXIMUM_DATE                             = "2454233.45815"
\MINIMUM_VALUE                            = "12152.066"
\VALUE_UNITS                              = "m/s"
\MAXIMUM_VALUE                            = "12722.004"
\REFERENCE                                = "Setiawan et al. 2008 (Nature, 451, 38)"
\BIBCODE                                  = "2008Natur.451...38S"
\TELESCOPE                                = "MPG/ESO 2.2m"
\INSTRUMENT                               = "FEROS"
\WAVELENGTH_CALIBRATION_TECHNIQUE         = "Thorium Argon"
\OBSERVATORY_SITE                         = "ESO La Silla, Chile"
\COLUMN_JD                                = "Julian date of observation"
\COLUMN_RADIAL_VELOCITY                   = "Radial velocity relative to barycenter"
\COLUMN_RADIAL_VELOCITY_UNCERTAINTY       = "Uncertainty in RADIAL_VELOCITY"
|            JD | Radial_Velocity | Radial_Velocity_Uncertainty |
|        double |          double |                      double |
|          days |             m/s |                         m/s |
  2454158.87483         12631.981                         35.91
  2454159.60602         12300.144                         48.46
  2454160.72350         12203.973                         42.05
  2454160.89623         12242.839                         27.63
  2454161.54624         12544.027                         43.39
  2454161.64004         12573.295                         36.15
  2454161.94028         12607.145                         40.96
  2454162.56455         12519.773                         35.47
  2454162.78902         12455.979                         30.24
  2454162.89244         12405.776                         44.10
  2454163.60348         12282.121                         36.62
  2454163.80129         12251.532                         34.28
  2454163.85063         12169.278                         42.16
  2454164.60323         12383.956                         41.92
  2454164.78188         12437.942                         39.40
  2454164.82594         12404.094                         47.11
  2454165.61156         12511.398                         24.97
  2454165.76160         12566.662                         30.79
  2454165.83776         12589.607                         29.65
  2454167.53473         12195.195                         48.26
  2454167.65984         12279.790                         32.04
  2454167.78416         12321.428                         34.14
  2454167.85679         12354.363                         31.03
  2454168.53015         12476.821                         35.79
  2454168.65793         12550.961                         27.65
  2454168.78395         12654.375                         25.01
  2454169.53763         12543.738                         39.68
  2454169.65967         12590.403                         31.20
  2454169.79057         12487.067                         42.40
  2454170.74475         12231.969                         39.33
  2454171.76412         12365.224                         39.40
  2454171.87613         12484.874                         45.20
  2454172.58888         12599.744                         28.19
  2454215.66141         12689.625                         59.46
  2454215.71105         12646.549                         44.51
  2454216.48965         12252.076                         44.74
  2454216.54997         12315.095                         42.14
  2454216.67976         12314.656                         27.71
  2454217.48949         12172.139                         33.37
  2454217.63023         12197.675                         34.52
  2454217.72173         12304.251                         60.64
  2454219.68871         12425.431                         63.86
  2454220.47028         12152.066                         44.26
  2454220.72009         12169.643                         77.35
  2454221.47858         12292.914                         50.25
  2454221.72683         12424.398                         81.77
  2454222.46130         12545.975                         38.99
  2454222.59657         12624.963                         32.15
  2454222.69044         12584.255                         26.13
  2454223.47254         12464.632                         70.71
  2454223.58873         12338.258                         42.38
  2454223.69694         12413.202                         38.29
  2454224.47494         12370.189                         38.17
  2454224.57008         12393.263                         39.01
  2454224.66443         12230.458                         57.38
  2454225.48801         12428.662                         29.76
  2454225.58674         12595.261                         37.41
  2454225.68763         12616.106                         30.65
  2454227.74662         12273.699                         52.37
  2454228.48806         12379.933                         42.94
  2454228.60377         12350.142                         40.56
  2454228.68582         12407.201                         21.79
  2454230.46058         12663.709                         32.14
  2454231.46572         12158.115                         34.68
  2454232.45578         12420.629                         26.59
  2454233.45815         12722.004                         52.23
