\STAR_ID='HD 19994'
\DATA_CATEGORY='Planet Radial Velocity Curve'
\NUMBER_OF_POINTS='82'
\TIME_REFERENCE_FRAME='HJD'
\MINIMUM_DATE='2449767.6089'
\DATE_UNITS='days'
\MAXIMUM_DATE='2455846.84583'
\MINIMUM_VALUE='-67.4100037'
\VALUE_UNITS='m/s'
\MAXIMUM_VALUE='77.3300018'
\REFERENCE='Howard & Fulton, 2016'
\BIBCODE='2016arXiv160603134H'
\TELESCOPE='3.0m Shane'
\INSTRUMENT='l: Hamilton Spectrograph post-dewar 16 (after November 1994)'
\WAVELENGTH_CALIBRATION_TECHNIQUE='Iodine'
\OBSERVATORY_SITE='Lick Observatory, California'
\COLUMN_RADIAL_VELOCITY='Relative radial velocity'
\COLUMN_RADIAL_VELOCITY_UNCERTAINTY='Uncertainty in RADIAL_VELOCITY'
|          HJD|Radial_Velocity|Radial_Velocity_Uncertainty|
|       double|         double|                     double|
|         days|          m / s|                      m / s|
|         null|           null|                       null|
  2449767.6089     -35.9900017                   9.9499998 
 2450011.90835     -43.1699982                   3.3600001 
 2450031.86133           -36.0                   5.3000002 
 2450087.73144     -30.8400002                         5.0 
 2450325.87793     -67.4100037                   4.3400002 
 2450441.83496     -24.9200001                   4.5799999 
 2451132.84082     -12.9899998                   7.2399993 
 2451805.99316     -12.9700003                   4.5999999 
  2451806.9668     -11.9099998                   5.9399996 
 2451807.94043       2.0899999                   4.8800001 
 2451811.91211     -12.1800003                   4.7199998 
 2451824.94043      10.3299999                   4.8800001 
 2451866.80762      10.3199997                   5.1999993 
 2451869.83642           -1.58                   4.0999999 
 2451876.80957      24.8299999                   5.5700002 
 2451881.78516      10.8000002                   4.6799998 
 2452122.01074     -30.8199997                         4.5 
 2452184.91504     -28.2800007                   5.3299994 
 2452195.95019     -27.3400002                   4.4200001 
 2452201.93848       9.5600004                   4.6700001 
 2452218.87617      -8.0200005                   3.8299997 
 2452256.74902     -19.2099991                   5.4299998 
 2452267.67481      -6.5700002                   3.8299997 
 2452292.72178       4.9699998                   3.5000002 
 2452293.69601      -9.1300001                   3.4200001 
 2452316.68831      10.1999998                   3.0799999 
 2452494.01465       6.1799998                   3.6900001 
 2452509.01854      -4.1599998                   2.6700001 
 2452509.91699      10.9899998                   3.9300003 
 2452515.00846     -24.7399998                   2.8599999 
 2452517.01133     -41.4300003                        3.45 
 2452523.02066       3.3800001                        3.73 
 2452525.01353     -23.4899998                   3.1199999 
 2452535.95117     -20.0799999                   3.6099999 
 2452574.89619      12.3999996                        3.79 
 2452577.87388     -15.5600004                   3.4300001 
 2452598.80526     -10.0900002                        2.77 
 2452606.81119     -19.0100002                   2.8099999 
 2452608.80625       8.8400002                        2.24 
 2452893.98144      23.0200005                   3.5899997 
 2452898.02637     -10.8699999                   3.3900001 
 2452990.76465            0.31                   3.9200001 
  2452991.7334           -3.01                   3.8199999 
 2453010.78125       8.6400003                   3.5600002 
 2453018.73926       3.8699999                   4.0799999 
 2453048.66854     -14.8699999                   4.1599998 
 2453069.65137      -7.9299998                   4.4000001 
 2453246.01465      28.6299992                        4.52 
 2453250.98926      38.7099991                   4.2800002 
 2453252.00519      26.8899994                   2.8099999 
 2453260.01403      18.6299992                   3.3400002 
 2453264.01658           11.29                        3.47 
 2453274.95789      43.4399986                   3.3799999 
 2453280.97559      30.5900002                   4.1900001 
 2453281.95606      37.1500015                   4.1700001 
 2453312.82818      45.1399994                        3.48 
 2453315.83397      45.9799995                        3.53 
 2453340.76844      43.0200005                   2.8800001 
 2453391.69349      37.5600014                   2.6500001 
 2453636.95974            0.56                   2.4400001 
 2453744.69821      41.3100014                        2.51 
 2453773.67021      27.2199993                   3.3400002 
 2453774.61938      29.2800007                   3.0899999 
 2453988.02671      -5.5900002                   3.9400001 
 2453988.86262       2.6400001                   3.1700001 
 2453989.94865           -1.67                        2.51 
 2454071.86996       4.2199998                        3.77 
 2454072.78667      -7.9499998                   3.9600003 
 2454073.73714      -5.4899998                   3.9600003 
 2454337.96077      31.2000008                   2.6200001 
 2454373.95653       8.1899996                   3.7499998 
 2454425.80477            1.64                   2.8499999 
 2454783.76858      48.2400017                   4.2399998 
 2454785.86887      46.4099998                   3.1800001 
  2454845.6943            33.5                        3.54 
 2454848.72935      18.6900005                   3.3900001 
 2454849.70951           -0.95                   3.4399998 
 2454863.66578      33.7400017                   5.2199998 
 2455171.84115      77.3300018                   5.6199999 
 2455439.00142      20.8700008                         4.5 
 2455844.94579           -0.08                        5.25 
 2455846.84583      44.6300011                   4.5599999 
