\STAR_ID                                  = "47 UMa"
\DATA_CATEGORY                            = "Planet Radial Velocity Curve"
\NUMBER_OF_POINTS                         = "44"
\TIME_REFERENCE_FRAME                     = "BJD"
\MINIMUM_DATE                             = "2450150.5493"
\DATE_UNITS                               = "days"
\MAXIMUM_DATE                             = "2452751.4008"
\MINIMUM_VALUE                            = "11164.00"
\VALUE_UNITS                              = "m/s"
\MAXIMUM_VALUE                            = "11290.00"
\REFERENCE                                = "Naef et al. 2004 (A&A, 414, 351)"
\BIBCODE                                  = "2004A&A...414..351N"
\TELESCOPE                                = "1.93m"
\INSTRUMENT                               = "ELODIE"
\WAVELENGTH_CALIBRATION_TECHNIQUE         = "Thorium Argon"
\OBSERVATORY_SITE                         = "Observatoire de Haute Provence (OHP), France"
\COLUMN_RADIAL_VELOCITY                   = "Radial velocity relative to barycenter"
\COLUMN_RADIAL_VELOCITY_UNCERTAINTY       = "Uncertainty in RADIAL_VELOCITY"
|          BJD | Radial_Velocity | Radial_Velocity_Uncertainty |
|       double |          double |                      double |
|         days |             m/s |                         m/s |
  2450150.5493          11203.00                          7.00
  2450207.3648          11175.00                          7.00
  2450477.6002          11164.00                          7.00
  2450532.4115          11197.00                          7.00
  2450532.4172          11198.00                          7.00
  2450532.4265          11186.00                          7.00
  2450532.4321          11185.00                          7.00
  2450532.4413          11183.00                          7.00
  2450532.4466          11191.00                          7.00
  2450557.4235          11196.00                          7.00
  2450582.3557          11202.00                          8.00
  2450767.7048          11277.00                          7.00
  2450821.6242          11273.00                          7.00
  2450826.6455          11270.00                          7.00
  2450826.6516          11281.00                          7.00
  2450884.4573          11266.00                          7.00
  2450911.4440          11269.00                          7.00
  2450911.4561          11275.00                          7.00
  2450938.3456          11278.00                          8.00
  2450938.3614          11290.00                          9.00
  2450970.3460          11274.00                          7.00
  2451174.6728          11224.00                          8.00
  2451234.4857          11215.00                          7.00
  2451266.4164          11187.00                          8.00
  2451324.3663          11185.00                          7.00
  2451508.6987          11176.00                          7.00
  2451542.6385          11177.00                          7.00
  2451587.5644          11190.00                          7.00
  2451621.4418          11180.00                          7.00
  2451655.4028          11190.00                          7.00
  2451690.3978          11194.00                          7.00
  2451883.7067          11270.00                          7.00
  2451909.6771          11268.00                          8.00
  2451950.6479          11270.00                          7.00
  2452038.4214          11264.00                          8.00
  2452078.3565          11254.00                          7.00
  2452249.6830          11231.00                          9.00
  2452355.5093          11191.00                          8.00
  2452356.4997          11191.00                          8.00
  2452614.7120          11164.00                          9.00
  2452678.5739          11181.00                          7.00
  2452718.5215          11189.00                          7.00
  2452747.4011          11188.00                          7.00
  2452751.4008          11192.00                          7.00
