\STAR_ID                                  = "HD 80606"
\DATA_CATEGORY                            = "Planet Radial Velocity Curve"
\NUMBER_OF_POINTS                         = "55"
\TIME_REFERENCE_FRAME                     = "BJD"
\MINIMUM_DATE                             = "2451508.677"
\DATE_UNITS                               = "days"
\MAXIMUM_DATE                             = "2451982.372"
\MINIMUM_VALUE                            = "3516.00"
\VALUE_UNITS                              = "m/s"
\MAXIMUM_VALUE                            = "4322.00"
\REFERENCE                                = "Naef et al. 2001 (A&A, 375, L27)"
\BIBCODE                                  = "2001A&A...375L..27N"
\TELESCOPE                                = "1.93m"
\INSTRUMENT                               = "ELODIE"
\WAVELENGTH_CALIBRATION_TECHNIQUE         = "Thorium Argon"
\OBSERVATORY_SITE                         = "Observatoire de Haute Provence (OHP), France"
\COLUMN_RADIAL_VELOCITY                   = "Radial velocity relative to barycenter"
\COLUMN_RADIAL_VELOCITY_UNCERTAINTY       = "Uncertainty in RADIAL_VELOCITY"
|         BJD | Radial_Velocity | Radial_Velocity_Uncertainty |
|      double |          double |                      double |
|        days |             m/s |                         m/s |
  2451508.677           3657.00                         12.00
  2451509.688           3644.00                         12.00
  2451510.693           3638.00                         12.00
  2451541.632           3883.00                         13.00
  2451559.599           3810.00                         12.00
  2451560.675           3811.00                         14.00
  2451587.493           3774.00                         15.00
  2451621.391           3651.00                         13.00
  2451622.404           3663.00                         14.00
  2451623.397           3636.00                         13.00
  2451625.410           3635.00                         11.00
  2451653.385           3863.00                         13.00
  2451654.364           3886.00                         16.00
  2451656.384           3842.00                         11.00
  2451659.366           3822.00                         14.00
  2451688.369           3781.00                         12.00
  2451690.363           3795.00                         13.00
  2451691.358           3762.00                         12.00
  2451692.362           3759.00                         14.00
  2451722.359           3713.00                         13.00
  2451727.359           3703.00                         15.00
  2451835.691           3666.00                         17.00
  2451836.691           3680.00                         15.00
  2451852.706           3616.00                         17.00
  2451853.705           3600.00                         13.00
  2451856.677           3520.00                         14.00
  2451859.641           3516.00                         17.00
  2451863.663           4146.00                         16.00
  2451882.720           3862.00                         15.00
  2451906.647           3780.00                         14.00
  2451909.632           3769.00                         18.00
  2451950.493           3671.00                         20.00
  2451950.509           3640.00                         19.00
  2451952.556           3659.00                         12.00
  2451952.569           3676.00                         12.00
  2451955.444           3674.00                         12.00
  2451955.459           3669.00                         13.00
  2451974.297           4307.00                         14.00
  2451974.323           4300.00                         14.00
  2451974.335           4322.00                         15.00
  2451974.348           4293.00                         14.00
  2451974.360           4291.00                         14.00
  2451974.377           4265.00                         12.00
  2451974.389           4265.00                         12.00
  2451974.402           4281.00                         12.00
  2451974.415           4277.00                         12.00
  2451974.428           4268.00                         12.00
  2451974.440           4291.00                         15.00
  2451974.453           4283.00                         13.00
  2451974.469           4269.00                         12.00
  2451974.482           4281.00                         12.00
  2451974.495           4276.00                         12.00
  2451977.482           4058.00                         17.00
  2451978.445           4042.00                         14.00
  2451982.372           3944.00                         16.00
