\STAR_ID='HD 102870'
\DATA_CATEGORY='Planet Radial Velocity Curve'
\NUMBER_OF_POINTS='70'
\TIME_REFERENCE_FRAME='HJD'
\MINIMUM_DATE='2449770.03296'
\DATE_UNITS='days'
\MAXIMUM_DATE='2454784.06361'
\MINIMUM_VALUE='-25.7900009'
\VALUE_UNITS='m/s'
\MAXIMUM_VALUE='46.4500008'
\REFERENCE='Howard & Fulton, 2016'
\BIBCODE='2016arXiv160603134H'
\TELESCOPE='3.0m Shane'
\INSTRUMENT='l: Hamilton Spectrograph post-dewar 16 (after November 1994)'
\WAVELENGTH_CALIBRATION_TECHNIQUE='Iodine'
\OBSERVATORY_SITE='Lick Observatory, California'
\COLUMN_RADIAL_VELOCITY='Relative radial velocity'
\COLUMN_RADIAL_VELOCITY_UNCERTAINTY='Uncertainty in RADIAL_VELOCITY'
|          HJD|Radial_Velocity|Radial_Velocity_Uncertainty|
|       double|         double|                     double|
|         days|          m / s|                      m / s|
|         null|           null|                       null|
 2449770.03296           -0.97                   1.7199999 
 2449793.90477     -15.0600004                        1.35 
 2449857.68999      -8.8800001                        1.88 
  2450090.9188            0.53                   1.6199999 
 2450126.93399       2.4100001                   1.7800001 
 2450128.94824            7.52                        2.29 
 2450148.92581      13.0299997                   1.8200001 
 2450187.79081           -3.52                   1.7500001 
 2450200.74708           -1.74                        1.65 
  2450503.9082      46.4500008                   2.6099999 
 2450614.74512      17.8400002                   3.3600001 
 2450794.04492           15.04                   2.0999999 
 2451861.06836       9.1899996                   3.1500001 
 2451909.00684      -5.0100002                   2.6200001 
 2451946.99707      20.0699997                   3.9300003 
 2452041.72852       4.6599998                        2.96 
 2452283.09277      11.6700001                   8.3699999 
 2452288.06316      14.2299995                   2.0999999 
 2452334.91894      23.2299995                   3.6099999 
 2452991.06836     -19.1700001                         2.2 
 2453010.04492     -19.4300003                   2.3599999 
 2453019.06836           -5.46                   2.5999997 
 2453081.89738     -13.3400002                        1.76 
 2453102.81738     -18.2800007                        2.55 
 2453118.76491     -11.5900002                   1.7800001 
 2453131.72363           -3.24                        2.46 
 2453132.74609           -0.35                        2.72 
 2453147.73633      -8.8000002                   2.3199999 
 2453157.71973           -0.29                        2.53 
  2453361.0576     -13.3699999                   2.4200001 
 2453363.04454       2.1300001                   1.7800001 
  2453363.9818            0.65                        1.89 
 2453385.07392      -2.8099999                   1.8300002 
 2453386.06578            1.26                   1.6800001 
 2453388.96378           -0.92                   1.8200001 
 2453402.99228            1.24                   1.8099998 
 2453403.98767       4.4899998                        1.91 
 2453405.01007      12.5900002                   1.8300002 
 2453406.02842            2.27                   1.7199999 
 2453437.93004           -0.82                   2.0699999 
 2453438.89812      -5.8000002                        2.02 
 2453440.81336      -2.3699999                   2.0999999 
  2453441.8834     -12.4300003                   2.9699998 
 2453460.81938            12.5                   2.0999999 
 2453475.72963       2.1099999                        2.04 
 2453476.72264      -8.9899998                        1.88 
 2453477.74109           -4.25                        1.85 
 2453478.77745           -1.37                         1.8 
 2453479.79243            4.79                   1.9200001 
 2453512.72741           -1.13                        1.96 
   2453523.719           -8.04                   1.9500002 
 2453540.71664      -6.2800002                   2.3099999 
 2453541.72411      -1.4299999                        2.21 
 2453745.03215     -18.4599991                   1.5599999 
 2453753.01027     -16.1700001                   1.9299999 
 2453756.04869     -18.1499996                   1.6700001 
 2453773.94737     -20.8600006                         2.0 
 2453844.78701      25.4300003                   4.0999999 
 2453845.73588      24.4099998                        4.02 
 2454072.07947          -12.29                        1.74 
 2454103.06362     -19.4400005                        1.88 
 2454104.06217     -25.7900009                   1.6999999 
  2454133.9889      -7.5799999                   1.6999999 
 2454135.89215           -0.79                         2.0 
 2454165.87896     -21.2800007                        1.85 
 2454547.92996            4.27                   1.9200001 
 2454574.86272     -17.4200001                        1.66 
 2454597.75026            -1.7                   1.7899998 
  2454599.7063      -2.6500001                   2.4400001 
 2454784.06361           15.29                        2.76 
