\STAR_ID='HD 30495'
\DATA_CATEGORY='Planet Radial Velocity Curve'
\NUMBER_OF_POINTS='42'
\TIME_REFERENCE_FRAME='HJD'
\MINIMUM_DATE='2451836.94629'
\DATE_UNITS='days'
\MAXIMUM_DATE='2455846.92179'
\MINIMUM_VALUE='-30.25'
\VALUE_UNITS='m/s'
\MAXIMUM_VALUE='34.7000008'
\REFERENCE='Howard & Fulton, 2016'
\BIBCODE='2016arXiv160603134H'
\TELESCOPE='3.0m Shane'
\INSTRUMENT='l: Hamilton Spectrograph post-dewar 16 (after November 1994)'
\WAVELENGTH_CALIBRATION_TECHNIQUE='Iodine'
\OBSERVATORY_SITE='Lick Observatory, California'
\COLUMN_RADIAL_VELOCITY='Relative radial velocity'
\COLUMN_RADIAL_VELOCITY_UNCERTAINTY='Uncertainty in RADIAL_VELOCITY'
|          HJD|Radial_Velocity|Radial_Velocity_Uncertainty|
|       double|         double|                     double|
|         days|          m / s|                      m / s|
|         null|           null|                       null|
 2451836.94629       5.8499999                   4.3200002 
 2451837.97168       8.3299999                   4.2199998 
 2451865.92903      -2.1500001                        2.96 
 2451874.84386     -25.3400002                   2.7500002 
 2451945.69128            0.82                   2.6200001 
 2451946.68676       9.8000002                        2.55 
  2452534.9555     -18.5100002                        2.46 
 2452536.01748      -7.6300001                   2.8499999 
 2452925.96247       9.7799997                   2.3800001 
 2453282.98242     -22.0900002                         3.3 
 2453338.78613       4.6900001                        3.77 
 2453389.75045      15.6199999                        3.04 
 2453402.73523      16.5900002                         2.5 
 2453403.73049       9.9700003                   2.9200001 
 2453405.70267     -14.8599997                        3.52 
 2453637.03931            6.21                        3.45 
 2453755.67115      23.1000004                   3.3999999 
 2453756.72344      31.4200001                   3.0799999 
 2453988.94634      34.2700005                   4.1500001 
 2454049.95334     -13.1800003                   3.0799999 
 2454071.94573     -13.1000004                   3.6700001 
 2454072.80991          -30.25                   3.1800001 
 2454073.83442      -4.1900001                   2.4100001 
 2454099.83634      19.1200008                   3.7499998 
  2454102.7641      27.1100006                   3.8499999 
 2454103.76923       8.5900002                         3.2 
 2454337.99262      10.3400002                   3.6099999 
 2454374.01538      34.7000008                        2.71 
  2454426.9288     -17.0300007                   3.1400003 
 2454427.92376     -14.2600002                   2.9200001 
 2454428.93126      -8.4200001                   3.1500001 
 2454723.01425       6.3499999                        2.23 
 2454724.00401      12.3199997                   2.6400003 
 2454725.02421     -20.2199993                   2.3399999 
 2454783.83851             0.0                        3.51 
  2454784.8609           -1.77                        3.76 
 2454785.93032     -11.5699997                   2.6400003 
  2454845.7585      -1.8200001                   2.0899999 
 2454846.75584     -11.6700001                   3.3499997 
 2454863.72976     -17.2800007                   3.6199996 
 2455171.92514      -2.6700001                   5.4299998 
 2455846.92179     -12.7399998                        2.99 
