\STAR_ID='HD 30652'
\DATA_CATEGORY='Planet Radial Velocity Curve'
\NUMBER_OF_POINTS='48'
\TIME_REFERENCE_FRAME='HJD'
\MINIMUM_DATE='2451796.99121'
\DATE_UNITS='days'
\MAXIMUM_DATE='2455846.92653'
\MINIMUM_VALUE='-133.3999939'
\VALUE_UNITS='m/s'
\MAXIMUM_VALUE='69.6299973'
\REFERENCE='Howard & Fulton, 2016'
\BIBCODE='2016arXiv160603134H'
\TELESCOPE='3.0m Shane'
\INSTRUMENT='l: Hamilton Spectrograph post-dewar 16 (after November 1994)'
\WAVELENGTH_CALIBRATION_TECHNIQUE='Iodine'
\OBSERVATORY_SITE='Lick Observatory, California'
\COLUMN_RADIAL_VELOCITY='Relative radial velocity'
\COLUMN_RADIAL_VELOCITY_UNCERTAINTY='Uncertainty in RADIAL_VELOCITY'
|          HJD|Radial_Velocity|Radial_Velocity_Uncertainty|
|       double|         double|                     double|
|         days|          m / s|                      m / s|
|         null|           null|                       null|
 2451796.99121     -48.7099991                  11.0500002 
 2451797.99414     -50.2900009                  10.4099998 
 2451834.00293     -60.3199997                   9.4499998 
 2451834.89125     -93.0100021                   6.1500001 
 2451836.96582    -116.2399979                   9.9499998 
 2451837.98633    -133.3999939                  10.8599997 
 2451839.99707    -112.8600006                  10.4499998 
 2451841.89648     -59.2000008                  11.1800003 
 2451859.90137     -64.1800003                  11.3999996 
 2452279.72047     -91.7900009                   7.8400002 
 2452927.91128      21.9699993                   4.8299999 
 2452937.94732          -12.71                   5.0999999 
 2453018.77539      27.8299999                         9.0 
 2453284.99564      45.9000015                        5.23 
  2453339.8112      61.0600014                        5.79 
 2453362.79862      35.2400017                   6.6300006 
 2453363.81461      21.9300003                   6.9000001 
 2453403.75283      29.3500004                   6.9899998 
 2453404.70233            1.03                   6.9299998 
  2453405.7179      41.7900009                   6.8200002 
 2453637.98382      36.2599983                   7.4299998 
 2453988.95713      69.6299973                   7.5299997 
 2454049.92308      20.0400009                   7.1900001 
 2454072.80095      16.2000008                   7.0100002 
 2454073.77765      15.7200003                   7.8400002 
 2454099.85256      13.6199999                   7.0999999 
  2454103.7637           13.29                   7.6100001 
 2454337.98917      39.5099983                  10.4899998 
 2454374.02697      22.2900009                   8.5500002 
 2454428.95716      47.2400017                   6.4200001 
 2454447.86936      -1.5700001                   6.3499999 
 2454461.88869     -17.7099991                   5.5000005 
 2454517.64783       7.3699999                   7.6199994 
 2454783.86413      47.5900002                   7.0100002 
 2454784.88473      30.3199997                  10.8800001 
 2454785.96326      42.7299995                   7.6100001 
 2454845.79241     -60.2900009                   5.2400002 
 2454846.73616     -68.5999985                   7.7700005 
 2454847.74177     -36.1100006                   8.3699999 
 2454848.76398     -87.4100037                   7.8400002 
 2454849.73475     -79.0100021                   6.3600001 
 2454863.75238    -105.8499985                   9.5799999 
  2454864.6793     -93.6900024                   9.1300001 
 2454865.71203     -10.3800001                   8.8500004 
 2455171.90786       9.1000004                  14.7399988 
 2455439.02303     -28.5100002                   8.9899998 
 2455576.72194     -33.8499985                  10.5600014 
 2455846.92653     -75.6699982                   9.8000002 
