\STAR_ID                                  = "HD 8574"
\DATA_CATEGORY                            = "Planet Radial Velocity Curve"
\NUMBER_OF_POINTS                         = "41"
\TIME_REFERENCE_FRAME                     = "BJD"
\MINIMUM_DATE                             = "2450825.3036"
\DATE_UNITS                               = "days"
\MAXIMUM_DATE                             = "2452565.5209"
\MINIMUM_VALUE                            = "18847.00"
\VALUE_UNITS                              = "m/s"
\MAXIMUM_VALUE                            = "19010.00"
\REFERENCE                                = "Perrier et al. 2003 (A&A, 410, 1039)"
\BIBCODE                                  = "2003A&A...410.1039P"
\TELESCOPE                                = "1.93m"
\INSTRUMENT                               = "ELODIE"
\WAVELENGTH_CALIBRATION_TECHNIQUE         = "Thorium Argon"
\OBSERVATORY_SITE                         = "Observatoire de Haute Provence (OHP), France"
\COLUMN_RADIAL_VELOCITY                   = "Radial velocity relative to barycenter"
\COLUMN_RADIAL_VELOCITY_UNCERTAINTY       = "Uncertainty in RADIAL_VELOCITY"
|          BJD | Radial_Velocity | Radial_Velocity_Uncertainty |
|       double |          double |                      double |
|         days |             m/s |                         m/s |
  2450825.3036          18908.00                          9.00
  2451027.6252          18988.00                          9.00
  2451119.4771          18847.00                          9.00
  2451152.3729          18878.00                         15.00
  2451174.2902          18887.00                          9.00
  2451177.3375          18898.00                         11.00
  2451417.6331          18912.00                         10.00
  2451418.5748          18917.00                          9.00
  2451438.5667          18939.00                          9.00
  2451466.5097          19010.00                          9.00
  2451505.4319          18940.00                         11.00
  2451506.4449          18906.00                          9.00
  2451507.4146          18924.00                          9.00
  2451509.4588          18929.00                         10.00
  2451511.4665          18900.00                          9.00
  2451541.2766          18868.00                         12.00
  2451543.2873          18879.00                         12.00
  2451555.3084          18868.00                         10.00
  2451754.6113          18903.00                         13.00
  2451781.6238          18877.00                          8.00
  2451784.6383          18903.00                         11.00
  2451804.5764          18871.00                         10.00
  2451806.5860          18858.00                         11.00
  2451835.4996          18880.00                          9.00
  2451852.4737          18896.00                         12.00
  2451853.4725          18900.00                         11.00
  2451882.3615          18931.00                         10.00
  2451900.3093          18975.00                         12.00
  2451906.3263          18993.00                         12.00
  2451951.2768          18961.00                         10.00
  2451956.2601          18950.00                         10.00
  2452158.6300          18999.00                          9.00
  2452161.5733          18974.00                         10.00
  2452193.5808          18936.00                          8.00
  2452197.5151          18913.00                          9.00
  2452215.3868          18911.00                          9.00
  2452218.4080          18903.00                          9.00
  2452534.5654          18918.00                         10.00
  2452560.4491          18926.00                         13.00
  2452560.4624          18949.00                         13.00
  2452565.5209          18947.00                         11.00
