\STAR_ID                                  = "HD 65216"
\DATA_CATEGORY                            = "Planet Radial Velocity Curve"
\NUMBER_OF_POINTS                         = "70"
\TIME_REFERENCE_FRAME                     = "BJD"
\MINIMUM_DATE                             = "2451256.5394"
\DATE_UNITS                               = "days"
\MAXIMUM_DATE                             = "2452716.6371"
\MINIMUM_VALUE                            = "42621.00"
\VALUE_UNITS                              = "m/s"
\MAXIMUM_VALUE                            = "42708.00"
\REFERENCE                                = "Mayor et al. 2004 (A&A, 415, 391)"
\BIBCODE                                  = "2004A&A...415..391M"
\TELESCOPE                                = "1.2m Euler Swiss telescope"
\INSTRUMENT                               = "CORALIE"
\WAVELENGTH_CALIBRATION_TECHNIQUE         = "Thorium Argon"
\OBSERVATORY_SITE                         = "ESO La Silla, Chile"
\COLUMN_RADIAL_VELOCITY                   = "Radial velocity relative to barycenter"
\COLUMN_RADIAL_VELOCITY_UNCERTAINTY       = "Uncertainty in RADIAL_VELOCITY"
|          BJD | Radial_Velocity | Radial_Velocity_Uncertainty |
|       double |          double |                      double |
|         days |             m/s |                         m/s |
  2451256.5394          42653.00                          6.00
  2451268.5663          42653.00                          7.00
  2451268.5784          42653.00                          8.00
  2451299.5028          42654.00                          7.00
  2451299.5150          42671.00                          7.00
  2451569.7099          42675.00                          5.00
  2451578.7298          42689.00                          5.00
  2451587.5940          42685.00                          5.00
  2451607.5918          42686.00                          6.00
  2451611.5679          42696.00                          8.00
  2451614.5829          42704.00                          7.00
  2451624.6186          42690.00                          6.00
  2451898.8053          42658.00                          6.00
  2451907.7873          42643.00                          6.00
  2451909.7586          42651.00                          6.00
  2451911.8323          42647.00                          5.00
  2451956.6422          42647.00                          6.00
  2451967.6139          42631.00                          7.00
  2451969.5978          42626.00                          5.00
  2451971.5857          42624.00                          6.00
  2451976.6065          42623.00                          5.00
  2451982.6180          42621.00                          5.00
  2451982.6313          42636.00                          5.00
  2452005.6545          42639.00                          8.00
  2452223.8482          42696.00                          5.00
  2452224.8212          42699.00                          5.00
  2452252.7799          42690.00                          5.00
  2452252.7931          42702.00                          5.00
  2452288.7343          42692.00                          4.00
  2452288.7476          42689.00                          4.00
  2452290.7319          42702.00                          5.00
  2452290.7452          42699.00                          5.00
  2452292.7052          42708.00                          6.00
  2452292.7185          42688.00                          6.00
  2452301.7844          42693.00                          5.00
  2452305.7590          42692.00                          5.00
  2452306.7573          42692.00                          5.00
  2452308.7147          42689.00                          4.00
  2452309.6656          42686.00                          5.00
  2452317.6474          42694.00                          6.00
  2452323.7075          42704.00                          4.00
  2452328.6522          42685.00                          5.00
  2452328.6655          42687.00                          5.00
  2452344.6181          42692.00                          5.00
  2452344.6314          42692.00                          5.00
  2452355.6093          42691.00                          5.00
  2452367.5506          42691.00                          5.00
  2452368.5957          42701.00                          6.00
  2452379.5972          42677.00                          6.00
  2452379.6106          42690.00                          7.00
  2452390.4901          42681.00                          6.00
  2452390.5036          42686.00                          6.00
  2452402.5158          42685.00                          7.00
  2452402.5295          42683.00                          6.00
  2452622.8117          42636.00                          5.00
  2452642.7446          42652.00                          5.00
  2452643.7534          42641.00                          6.00
  2452667.7024          42669.00                          5.00
  2452667.7160          42667.00                          5.00
  2452668.7339          42674.00                          5.00
  2452668.7476          42673.00                          5.00
  2452673.6614          42664.00                          5.00
  2452673.6750          42674.00                          5.00
  2452674.7175          42677.00                          6.00
  2452674.7311          42673.00                          6.00
  2452685.6021          42683.00                          5.00
  2452712.5775          42680.00                          6.00
  2452712.5910          42686.00                          6.00
  2452716.6235          42681.00                          5.00
  2452716.6371          42685.00                          5.00
