\STAR_ID='HD 9826'
\DATA_CATEGORY='Planet Radial Velocity Curve'
\NUMBER_OF_POINTS='312'
\TIME_REFERENCE_FRAME='HJD'
\MINIMUM_DATE='2449680.75615'
\DATE_UNITS='days'
\MAXIMUM_DATE='2455846.80257'
\MINIMUM_VALUE='-189.429992676'
\VALUE_UNITS='m/s'
\MAXIMUM_VALUE='193.070007324'
\REFERENCE='Howard & Fulton, 2016'
\BIBCODE='2016arXiv160603134H'
\TELESCOPE='3.0m Shane'
\INSTRUMENT='l: Hamilton Spectrograph post-dewar 16 (after November 1994)'
\WAVELENGTH_CALIBRATION_TECHNIQUE='Iodine'
\OBSERVATORY_SITE='Lick Observatory, California'
\COLUMN_RADIAL_VELOCITY='Relative radial velocity'
\COLUMN_RADIAL_VELOCITY_UNCERTAINTY='Uncertainty in RADIAL_VELOCITY'
|          HJD|Radial_Velocity|Radial_Velocity_Uncertainty|
|       double|         double|                     double|
|         days|          m / s|                      m / s|
|         null|           null|                       null|
 2449680.75615  -121.800003052                   4.3099999 
 2449942.00781   11.7299995422                   4.3299999 
  2449969.9794  -9.06999969482                        2.99 
 2449984.85315  -51.2000007629                         3.2 
   2450032.742   41.3899993896                        3.76 
 2450056.84243   41.1599998474                        3.22 
 2450068.58622  -70.0199966431                   3.3199999 
 2450068.77372  -66.7900009155                   3.6600003 
 2450069.59863   11.4799995422                   5.5100002 
 2450072.60254  -99.1999969482                   4.8800001 
 2450072.72363  -103.309997559                   4.3000002 
 2450073.65234  -58.7000007629                        4.54 
 2450080.78027  -27.9300003052                   5.9499998 
 2450086.73828  -94.5500030518                   5.0799999 
 2450087.68848  -22.8400001526                   4.7800002 
 2450088.74023   44.9599990845                   4.7199998 
 2450089.70996   4.61000013351                   4.6199999 
 2450090.64156  -70.5899963379                        3.48 
 2450091.66309  -78.8199996948                   5.0799999 
 2450299.00781   5.82999992371                   4.8600001 
 2450325.84961   16.3600006104                   4.5599999 
 2450326.91406           -29.5                        4.75 
 2450327.91797   33.9599990845                   3.9300003 
 2450421.56844   138.850006104                   3.6600003 
 2450421.75612   132.679992676                   3.5600002 
 2450437.68489   33.7299995422                   3.3299999 
 2450437.87012   41.9799995422                   5.0100002 
 2450441.77159            40.0                   3.4100001 
 2450640.98242  -51.7900009155                   4.5300002 
 2450655.99512   67.0899963379                   4.4000001 
 2450656.94531   102.319999695                   4.1700001 
 2450681.98144   5.71000003815                        4.73 
 2450767.72754   97.2600021362                        5.21 
 2450793.71582  -50.5299987793                   4.6799998 
 2450977.99609  -75.8099975586                   5.6399999 
 2450979.99219            73.5                   4.6999998 
 2451014.98047  -109.150001526                   4.0500002 
  2451025.9707   3.70000004768                   4.0999999 
 2451028.00684  -130.460006714                        4.29 
 2451045.01953  -15.7899999619                   4.2399998 
 2451046.00684  -105.419998169                   4.1900001 
 2451046.98535   -156.88999939                   4.4899998 
 2451047.95703  -101.790000916                   4.0599999 
 2451048.93041  -21.0900001526                   2.8900001 
 2451049.91607  -36.6699981689                   2.9300001 
 2451074.91406  -176.449996948                   4.0999999 
  2451100.9043  -108.569999695                   4.8200002 
 2451101.87793  -185.520004272                        4.98 
 2451130.85547  -124.730003357                   5.4499993 
 2451131.79883  -22.9400005341                   5.1599998 
 2451132.72168  -6.38999986649                   5.5000005 
 2451133.84082  -98.9100036621                        5.98 
 2451154.72559  -7.44999980927                   5.0599999 
 2451174.66992   -3.1099998951                   5.2199998 
 2451175.60742  -72.2300033569                   4.8099999 
 2451206.64519   30.7099990845                        3.98 
 2451212.67383  -103.559997559                   5.6799998 
 2451213.66602  -102.720001221                   5.1399999 
 2451239.63423  -38.1300010681                   3.8900001 
 2451240.64599  -120.260002136                   4.0999999 
 2451242.63459  -3.66000008583                   3.7499998 
  2451351.9834   -134.13999939                   4.5500002 
 2451353.96289  -17.6200008392                        5.46 
 2451354.95215  -86.7699966431                   5.1199999 
 2451362.97853   2.96000003815                   2.8800001 
 2451364.97559  -109.919998169                   3.9300003 
 2451375.97168  -15.6400003433                         4.5 
 2451376.99512   34.5600013733                   4.1599998 
 2451377.94931   17.5900001526                         2.5 
 2451378.97235  -52.0200004578                   2.5599999 
 2451379.97464  -49.9199981689                   2.6300004 
 2451380.96289   39.1800003052                        4.21 
 2451386.98348   62.6399993896                   3.3299999 
 2451387.98426  -23.8600006104                   2.7500002 
 2451388.98275  -40.9900016785                   3.1300004 
  2451389.9865           34.75                   3.3799999 
     2451392.0   36.3499984741                   4.8099999 
 2451392.98993  -47.0900001526                        2.74 
 2451401.93555  -0.15000000596                   4.8400002 
 2451402.88495          -12.25                   3.1800001 
 2451403.91979            67.0                   3.0799999 
 2451405.97656   47.3300018311                   4.4699998 
 2451406.99219  -31.7999992371                        3.97 
 2451408.02246             0.0                   4.4699998 
 2451409.98535   108.419998169                   3.5600002 
 2451416.78537  -8.18999958038                         3.2 
  2451416.9776   5.82999992371                   2.6099999 
 2451417.79929   78.2099990845                        3.45 
 2451418.93446           98.75                         2.8 
 2451419.89847   44.0499992371                        3.04 
 2451425.94998  -2.75999999046                   3.3199999 
 2451426.95269   73.7399978638                   4.4000001 
 2451427.95353   143.029998779                   2.9000001 
 2451428.93387   78.5100021362                   3.5899997 
 2451429.97215  -1.72000002861                        2.96 
 2451435.95478   75.1500015259                   2.8699999 
 2451436.80285   143.350006104                   3.6900001 
 2451437.97457   102.089996338                        3.78 
  2451438.8972            10.0                   3.2499998 
  2451439.8733   10.9300003052                        3.01 
 2451440.85532   98.6399993896                   3.3799999 
 2451444.98137   51.4000015259                        3.74 
 2451445.92277   129.630004883                        3.55 
 2451446.94207   114.199996948                   3.3199999 
 2451447.93444   22.3199996948                        3.74 
 2451453.86083   33.1199989319                   3.0799999 
 2451454.80735   102.279998779                   3.6400001 
 2451467.85792   29.2299995422                        3.03 
 2451468.83048   119.319999695                   2.9100001 
 2451477.86328   94.4000015259                   5.5100002 
 2451478.83385   127.029998779                        4.79 
 2451481.82084   16.6299991608                   6.2000003 
 2451482.80217   130.759994507                   3.1500001 
 2451496.70996   130.649993896                   4.2399998 
 2451500.80757   85.9800033569                        4.54 
 2451501.70606   125.199996948                   4.7800002 
 2451533.72533   79.9100036621                   3.3400002 
 2451534.72667   93.4400024414                   4.2600002 
 2451539.66484   37.0200004578                        3.45 
  2451542.6416   59.0699996948                   4.5599999 
 2451543.63574   78.1399993896                   4.5599999 
 2451572.59766  -42.3300018311                   4.9200001 
 2451573.66113  -80.9000015259                        5.29 
 2451581.61328  -38.8499984741                   5.3000002 
 2451738.99609          -20.75                   4.4400001 
 2451740.00293  -20.8700008392                   4.4699998 
 2451742.98828   10.1400003433                        3.77 
 2451743.98535  -45.7599983215                        4.04 
 2451744.98633  -4.32000017166                        4.21 
 2451745.98535   73.8000030518                        3.97 
 2451746.97559   56.3800010681                   4.6100006 
 2451751.00327           98.25                   3.6400001 
 2451752.99658  -39.9599990845                   2.3699999 
 2451774.94717            41.5                        2.26 
 2451775.97799  -62.5099983215                   2.4100001 
 2451778.95443   54.8800010681                   2.3299999 
 2451780.95904  -71.9400024414                   2.1900001 
 2451782.97863   60.4000015259                   2.4300001 
 2451798.94327  -75.2099990845                   3.3799999 
 2451802.94518  -9.39999961853                   2.6800001 
 2451803.95522  -93.0999984741                        2.77 
 2451804.93507  -48.1500015259                   2.5799999 
 2451805.87493   44.5200004578                        3.03 
 2451806.91554   44.3600006104                   3.6700001 
 2451812.93262  -58.0800018311                   4.6399999 
 2451813.81931  -85.9499969482                   2.4200001 
 2451814.87976   3.28999996185                         2.5 
 2451815.91485   53.7700004578                   3.5899997 
  2451816.8005  -21.8999996185                   2.5799999 
  2451822.8411  -90.3000030518                   3.6300001 
 2451823.81964  -35.2999992371                   2.9699998 
 2451824.86203   46.2900009155                        2.99 
 2451825.80688 -0.550000011921                   3.0199997 
 2451826.81225  -91.7300033569                         3.0 
 2451830.82195  -30.5100002289                         4.0 
  2451831.7848  -90.6800003052                   3.8900001 
 2451837.78846  -2.59999990463                   4.1999998 
 2451865.78616   83.4499969482                        2.78 
  2451866.7201   102.599998474                   3.3600001 
 2451877.76427  -14.0799999237                        3.53 
 2451881.62668            49.5                   2.6899998 
 2451882.62897  -6.53000020981                        3.55 
 2451886.67172   28.6100006104                   4.3600001 
  2451887.6649  -2.98000001907                   3.6900001 
 2451891.76263  -18.2700004578                   2.9000001 
 2451895.65137   23.8099994659                   5.0300002 
 2451896.71289 -0.509999990463                   5.4699998 
 2452111.93716   24.9500007629                        3.47 
 2452120.93804           59.25                   3.4200001 
 2452121.89415  -7.34000015259                   2.9100001 
 2452124.96191   98.0400009155                   4.5100002 
 2452129.89175   91.0199966431                        2.72 
 2452145.90684  -47.1800003052                   3.8499999 
  2452146.9103   11.9200000763                        3.04 
 2452147.82358   71.4800033569                   3.2899997 
 2452148.94531   48.0999984741                        3.78 
 2452156.87891   64.3799972534                        3.99 
 2452157.90659   67.7399978638                   2.9000001 
 2452158.93601  -27.2999992371                   3.1000001 
 2452159.90039  -52.3400001526                   4.2600002 
 2452160.90527   19.4099998474                   4.3600001 
 2452161.90102   91.0199966431                   4.3800001 
 2452162.80762   46.0400009155                         4.5 
 2452167.80266   14.1899995804                        3.27 
 2452181.82207   1.99000000954                   3.3499997 
 2452187.79352  -58.4599990845                   2.9400001 
 2452219.82111  -98.2900009155                        3.95 
 2452221.68423   37.2299995422                   4.0300002 
 2452251.63768  -126.400001526                   3.8499999 
 2452256.64362  -140.419998169                   3.4200001 
 2452262.65597  -59.7700004578                        3.52 
 2452278.61626  -113.660003662                   3.5600002 
 2452281.63642  -53.2400016785                        3.79 
 2452491.91501  -149.839996338                   3.1099999 
 2452492.96282  -113.040000916                        2.96 
 2452493.94089  -24.4599990845                        2.54 
   2452508.942  -59.7599983215                   2.6899998 
 2452509.85611  -138.839996338                        3.04 
 2452511.97261  -88.9100036621                   2.8299999 
 2452512.94826  -35.8600006104                   2.6500001 
 2452513.94232  -105.019996643                        2.76 
 2452515.91093  -128.399993896                        2.96 
 2452520.91967  -118.050003052                   3.3099999 
 2452522.89128  -77.5999984741                        2.77 
 2452524.90351  -172.289993286                   2.9000001 
 2452534.87637  -109.650001526                   2.9300001 
 2452540.92616  -57.5800018311                   3.3900001 
 2452552.87485  -162.300003052                        3.55 
 2452553.82616  -70.5800018311                   3.3400002 
  2452554.8146  -40.3199996948                   3.4900002 
 2452563.89968  -16.1200008392                   2.9200001 
 2452564.94687  -86.9800033569                        2.74 
 2452567.01629  -79.3399963379                   3.1800001 
 2452570.76748  -134.449996948                   3.3199999 
  2452574.7812  -113.019996643                   3.8799999 
 2452575.73444  -89.9700012207                   3.6400001 
 2452593.75273  -79.4199981689                   3.6099999 
  2452594.7804  -8.43000030518                   3.1900003 
 2452597.74062  -58.9399986267                   3.6099999 
 2452607.79685  -57.9500007629                         3.0 
 2452854.99205   171.919998169                   3.1700001 
 2452889.96875   92.8600006104                   4.8499999 
 2452891.00586   186.619995117                   4.4699998 
 2452893.92168   54.0099983215                   2.9400001 
 2452894.94491   114.080001831                        2.46 
 2452896.87308   138.220001221                        3.04 
 2452897.93467   44.4000015259                   2.9799998 
 2452925.82532   30.9200000763                        2.79 
 2452937.76845   162.029998779                        2.77 
 2452970.76245   95.2200012207                   2.7500002 
 2452982.67116   41.6599998474                        3.23 
 2452990.67457  -50.5099983215                        2.53 
 2452991.68176             8.5                        2.45 
 2452995.72102  -35.1899986267                        2.49 
 2453008.71936  -46.2000007629                   2.9200001 
 2453009.70155           -50.5                        4.21 
   2453013.647  -62.5400009155                   2.5599999 
 2453021.65207   4.40000009537                        5.25 
 2453220.95117  -40.1399993896                   4.1900001 
 2453247.01074            53.0                   4.1399999 
 2453247.91407   1.32000005245                   2.3399999 
 2453251.00586   10.4099998474                   4.1799998 
 2453260.91926   30.3799991608                   2.9000001 
 2453262.93245  -91.1399993896                   2.5699999 
 2453281.93952  -89.6699981689                         3.2 
 2453317.74199   23.3199996948                   4.3699999 
 2453336.74113  -13.3999996185                   3.3699999 
 2453337.72852   9.02000045776                   5.5300002 
 2453340.65885   42.2200012207                        2.27 
 2453360.71249  -1.28999996185                   4.0500002 
 2453385.65795   89.3000030518                        3.54 
 2453388.63952  -5.80000019073                        3.28 
   2453390.656   93.2099990845                        3.51 
 2453391.60836   1.05999994278                        3.53 
    2453595.99          -45.25                        4.54 
 2453636.89475  -83.9100036621                   2.8900001 
 2453637.83269          -51.75                        2.77 
 2453742.67811  -169.130004883                   3.0700002 
 2453744.65086   -103.63999939                   3.1199999 
 2453751.71431  -157.369995117                   3.3900001 
 2453753.59311  -164.300003052                   6.4099998 
 2453755.62424  -103.830001831                         3.3 
 2453949.96571  -16.9400005341                        3.01 
 2453951.92732  -52.3100013733                   3.6300001 
 2453953.98163   35.6300010681                   3.3799999 
 2453957.94902   71.4400024414                   2.9799998 
 2453964.95114  -92.1299972534                   3.1400003 
 2453987.89376  -87.7900009155                        4.25 
 2453988.79879  -46.9599990845                   3.3400002 
 2453989.84938   28.1499996185                        2.45 
 2454046.78282   111.720001221                        3.73 
 2454047.73253   50.1800003052                   3.8599999 
  2454049.7134    162.61000061                        3.71 
 2454072.67691   142.220001221                   3.1700001 
 2454073.66323   180.850006104                   3.1700001 
 2454097.73816   124.080001831                   3.8599999 
 2454099.74525   94.5500030518                   3.3600001 
 2454102.65349   86.7699966431                        3.21 
 2454103.66413   39.9099998474                   3.3400002 
 2454134.67387   92.8199996948                   3.3299999 
 2454311.97854   60.6199989319                        2.72 
  2454337.8869   91.6800003052                   3.0199997 
 2454414.69845   103.849998474                   3.3199999 
 2454426.70255  -62.6199989319                   3.3199999 
 2454428.70113   69.3300018311                   3.2399998 
 2454672.96158  -2.00999999046                   2.3299999 
  2454723.9659  -33.3699989319                   3.0899999 
 2454724.97411  -32.6199989319                        2.96 
 2454783.67324   50.8400001526                   3.6600003 
 2454784.68619   100.569999695                   5.1399999 
 2454785.73232   12.0900001526                   3.3499997 
 2454844.62944   50.4700012207                   3.1600001 
 2454846.66742  -85.4100036621                        2.72 
 2454848.65737   24.1900005341                   4.1300001 
 2454849.67439   20.5499992371                   4.1900001 
  2454863.6207   11.1800003052                   3.8599999 
 2454864.60978  -81.2300033569                        5.73 
 2455166.68862  -74.6100006104                        3.55 
 2455171.74478  -36.8400001526                        5.54 
  2455228.6135   14.5799999237                   4.5300002 
  2455438.8936  -6.19000005722                        2.78 
  2455527.7403   193.070007324                        3.27 
 2455546.81612   163.100006104                        2.52 
   2455577.696   83.4499969482                   3.3600001 
 2455578.66932   133.380004883                        3.55 
 2455579.72179   93.4100036621                   2.9300001 
 2455585.59723  -5.28999996185                   2.4400001 
 2455602.69405   62.4700012207                        2.79 
 2455603.68525  -16.4799995422                   2.8900001 
 2455843.89008  -189.429992676                   7.3600001 
  2455844.8475  -34.8499984741                        5.77 
 2455846.80257   98.5599975586                   5.4400001 
