\STAR_ID                                  = "HD 83443"
\DATA_CATEGORY                            = "Planet Radial Velocity Curve"
\NUMBER_OF_POINTS                         = "257"
\TIME_REFERENCE_FRAME                     = "BJD"
\MINIMUM_DATE                             = "2451262.6180"
\DATE_UNITS                               = "days"
\MAXIMUM_DATE                             = "2452717.6163"
\MINIMUM_VALUE                            = "28955.00"
\VALUE_UNITS                              = "m/s"
\MAXIMUM_VALUE                            = "29098.00"
\REFERENCE                                = "Mayor et al. 2004 (A&A, 415, 391)"
\BIBCODE                                  = "2004A&A...415..391M"
\TELESCOPE                                = "1.2m Euler Swiss telescope"
\INSTRUMENT                               = "CORALIE"
\WAVELENGTH_CALIBRATION_TECHNIQUE         = "Thorium Argon"
\OBSERVATORY_SITE                         = "ESO La Silla, Chile"
\COLUMN_RADIAL_VELOCITY                   = "Radial velocity relative to barycenter"
\COLUMN_RADIAL_VELOCITY_UNCERTAINTY       = "Uncertainty in RADIAL_VELOCITY"
|          BJD | Radial_Velocity | Radial_Velocity_Uncertainty |
|       double |          double |                      double |
|         days |             m/s |                         m/s |
  2451262.6180          28969.00                          6.00
  2451274.6501          28955.00                          6.00
  2451274.6622          28960.00                          6.00
  2451305.5195          28998.00                          6.00
  2451547.8615          29064.00                          7.00
  2451548.7312          29049.00                          5.00
  2451549.7812          28957.00                          6.00
  2451550.7424          29076.00                          5.00
  2451551.7225          29046.00                          5.00
  2451552.7741          28964.00                          6.00
  2451553.8188          29062.00                          5.00
  2451554.6102          29075.00                          6.00
  2451554.7594          29058.00                          5.00
  2451555.7126          28970.00                          5.00
  2451555.8619          28968.00                          5.00
  2451556.6392          29045.00                          5.00
  2451558.6223          28970.00                          6.00
  2451560.8648          29012.00                          6.00
  2451561.8632          28974.00                          6.00
  2451563.8716          29025.00                          5.00
  2451565.8794          29087.00                          6.00
  2451566.6500          29048.00                          5.00
  2451566.8521          29021.00                          5.00
  2451567.7096          28975.00                          5.00
  2451567.8775          28983.00                          5.00
  2451568.6572          29060.00                          5.00
  2451568.7680          29079.00                          5.00
  2451568.8858          29091.00                          5.00
  2451569.5780          29076.00                          6.00
  2451569.7863          29037.00                          5.00
  2451569.8575          29025.00                          5.00
  2451570.5761          28991.00                          6.00
  2451570.7272          28975.00                          5.00
  2451570.8828          28984.00                          5.00
  2451571.6326          29070.00                          5.00
  2451571.7282          29067.00                          5.00
  2451571.8793          29078.00                          5.00
  2451572.5650          29077.00                          9.00
  2451572.7300          29033.00                          6.00
  2451572.8846          29013.00                          5.00
  2451573.5681          28982.00                          6.00
  2451573.7687          28969.00                          5.00
  2451573.8836          28981.00                          5.00
  2451574.5918          29063.00                          6.00
  2451574.7255          29079.00                          5.00
  2451574.8766          29073.00                          6.00
  2451575.5707          29043.00                          6.00
  2451575.8831          29019.00                          5.00
  2451576.8600          28976.00                          5.00
  2451577.5844          29054.00                          6.00
  2451577.8721          29082.00                          5.00
  2451578.5816          29050.00                          6.00
  2451578.8437          29017.00                          5.00
  2451586.7076          29054.00                          5.00
  2451605.5784          29039.00                          6.00
  2451605.7358          29014.00                          5.00
  2451606.6520          28964.00                          5.00
  2451607.6965          29078.00                          5.00
  2451608.6727          29019.00                          5.00
  2451609.6637          28970.00                          5.00
  2451610.6867          29070.00                          5.00
  2451611.6697          29010.00                          7.00
  2451612.6943          28970.00                          6.00
  2451614.6361          29017.00                          6.00
  2451615.6832          28959.00                          5.00
  2451616.6967          29054.00                          5.00
  2451619.6041          29081.00                          5.00
  2451620.5785          29020.00                          5.00
  2451621.5850          28955.00                          7.00
  2451622.6520          29082.00                          6.00
  2451623.7093          29013.00                          6.00
  2451624.6520          28967.00                          6.00
  2451625.6140          29061.00                          5.00
  2451626.5816          29019.00                          6.00
  2451627.5949          28979.00                          5.00
  2451628.5841          29081.00                          6.00
  2451629.5951          29021.00                          6.00
  2451630.5728          28991.00                          6.00
  2451631.5812          29092.00                          5.00
  2451632.5824          29025.00                          5.00
  2451633.6099          28984.00                          5.00
  2451634.5805          29087.00                          5.00
  2451635.5666          29021.00                          5.00
  2451636.6006          28985.00                          5.00
  2451638.5761          29010.00                          5.00
  2451639.5644          28972.00                          5.00
  2451640.6341          29073.00                          5.00
  2451641.5618          29012.00                          8.00
  2451641.6341          29011.00                          7.00
  2451642.5654          28965.00                          5.00
  2451644.6295          28993.00                          5.00
  2451645.5710          28966.00                          5.00
  2451646.6719          29072.00                          6.00
  2451666.4957          29012.00                         10.00
  2451667.4810          29098.00                          9.00
  2451668.4745          29028.00                         12.00
  2451669.4713          28998.00                          7.00
  2451669.4846          28989.00                          7.00
  2451670.5033          29073.00                          5.00
  2451671.4660          29005.00                          6.00
  2451672.4863          28961.00                          6.00
  2451673.4778          29077.00                          6.00
  2451676.4676          29077.00                          6.00
  2451683.4793          28996.00                          7.00
  2451684.4728          28976.00                          7.00
  2451687.4847          28987.00                          5.00
  2451689.6059          28991.00                          9.00
  2451690.4696          28999.00                          6.00
  2451691.4933          29095.00                          7.00
  2451692.4990          28993.00                          8.00
  2451693.4746          29002.00                          6.00
  2451694.4786          29065.00                          7.00
  2451698.4742          28998.00                          8.00
  2451699.4738          28998.00                          7.00
  2451700.4655          29075.00                          6.00
  2451702.5347          29013.00                          8.00
  2451897.8489          29087.00                          5.00
  2451898.8410          28988.00                          5.00
  2451899.8504          29049.00                          6.00
  2451900.8605          29069.00                          4.00
  2451901.8606          28973.00                          5.00
  2451902.8420          29040.00                          5.00
  2451903.8379          29075.00                          4.00
  2451904.8500          28971.00                          4.00
  2451905.8581          29037.00                          5.00
  2451906.8473          29065.00                          5.00
  2451907.8650          28972.00                          6.00
  2451908.8558          29045.00                          5.00
  2451909.8210          29062.00                          5.00
  2451910.8680          28982.00                          5.00
  2451911.8469          29045.00                          4.00
  2451912.8609          29055.00                          5.00
  2451914.8149          29044.00                          5.00
  2451914.8283          29044.00                          5.00
  2451915.7698          29065.00                          5.00
  2451915.7832          29065.00                          5.00
  2451917.8428          29052.00                          6.00
  2451918.7281          29080.00                          5.00
  2451919.8438          28976.00                          5.00
  2451920.7755          29050.00                          5.00
  2451920.8139          29058.00                          4.00
  2451921.8067          29083.00                          6.00
  2451922.8137          28977.00                          5.00
  2451924.8357          29057.00                          5.00
  2451925.7547          28970.00                          7.00
  2451926.8132          29055.00                          6.00
  2451959.7304          29065.00                          5.00
  2451961.7060          28971.00                          5.00
  2451962.7635          29078.00                          5.00
  2451963.7188          29061.00                          4.00
  2451964.7304          28969.00                          5.00
  2451968.7351          29073.00                          5.00
  2451969.7090          29041.00                          5.00
  2451970.7084          28970.00                          5.00
  2451971.6971          29063.00                          5.00
  2451972.6880          29052.00                          5.00
  2451973.7119          28966.00                          5.00
  2451975.6780          29055.00                          4.00
  2451979.6322          28982.00                          5.00
  2451980.6942          29072.00                          5.00
  2451981.7352          29032.00                          4.00
  2451981.7485          29035.00                          5.00
  2451982.7193          28968.00                          5.00
  2451982.7326          28971.00                          5.00
  2451983.7134          29067.00                          5.00
  2451983.7268          29051.00                          5.00
  2451985.6535          28956.00                          5.00
  2451985.6669          28975.00                          5.00
  2451988.6364          28961.00                          5.00
  2451991.7176          28982.00                         12.00
  2451992.6555          29068.00                          8.00
  2451993.6629          29045.00                          6.00
  2451994.6585          28966.00                          6.00
  2451995.6347          29065.00                          6.00
  2451996.7182          29042.00                          5.00
  2451997.6603          28973.00                          7.00
  2451998.6869          29069.00                          8.00
  2452001.6662          29066.00                          5.00
  2452005.7218          29041.00                          9.00
  2452048.5043          28968.00                          7.00
  2452048.5183          28975.00                          7.00
  2452051.5187          28986.00                          7.00
  2452051.5328          28984.00                          7.00
  2452053.5267          29022.00                          6.00
  2452053.5408          29012.00                          6.00
  2452074.4843          29033.00                          5.00
  2452074.4981          29031.00                          5.00
  2452075.4876          28985.00                          6.00
  2452075.5008          28987.00                          5.00
  2452081.4806          28982.00                          5.00
  2452082.4776          29089.00                          5.00
  2452086.4855          29007.00                          5.00
  2452091.4566          29077.00                          6.00
  2452288.7882          29088.00                          4.00
  2452291.7620          29088.00                          5.00
  2452305.7744          29033.00                          5.00
  2452306.7880          29076.00                          4.00
  2452308.7693          29032.00                          4.00
  2452315.6964          29085.00                          4.00
  2452316.7639          28983.00                          4.00
  2452317.7017          29027.00                          5.00
  2452318.7585          29076.00                          4.00
  2452319.7110          28981.00                          4.00
  2452320.7032          29025.00                          4.00
  2452321.6945          29079.00                          4.00
  2452322.7237          28977.00                          4.00
  2452323.7763          29046.00                          4.00
  2452324.7238          29080.00                          4.00
  2452325.7284          28984.00                          4.00
  2452326.6817          29032.00                          4.00
  2452326.6949          29033.00                          4.00
  2452327.6972          29085.00                          4.00
  2452328.7571          28965.00                          5.00
  2452343.6501          28974.00                          4.00
  2452344.7692          29052.00                          5.00
  2452346.6481          28980.00                          4.00
  2452347.7199          29035.00                          4.00
  2452370.6186          28973.00                          5.00
  2452371.5871          29030.00                          5.00
  2452372.6096          29065.00                          5.00
  2452373.5811          28964.00                          6.00
  2452402.5836          29045.00                          6.00
  2452405.5205          29061.00                          5.00
  2452406.5912          28980.00                          5.00
  2452406.6049          28972.00                          6.00
  2452411.5830          29078.00                          7.00
  2452411.5968          29058.00                          5.00
  2452433.4759          28972.00                          5.00
  2452434.4747          29058.00                          5.00
  2452435.4778          29046.00                          6.00
  2452436.4669          28975.00                          5.00
  2452437.5422          29062.00                          6.00
  2452438.4690          29062.00                          7.00
  2452439.4770          28975.00                          5.00
  2452454.4784          28981.00                          6.00
  2452459.5038          29073.00                         13.00
  2452459.5175          29090.00                         11.00
  2452463.4745          28975.00                          5.00
  2452464.4696          29068.00                          6.00
  2452465.4715          29052.00                          7.00
  2452466.4719          28975.00                          7.00
  2452467.4659          29076.00                          7.00
  2452467.4796          29087.00                          7.00
  2452639.8362          28995.00                          4.00
  2452642.8501          29000.00                          4.00
  2452643.8337          29082.00                          4.00
  2452644.8345          29008.00                          4.00
  2452645.8221          28987.00                          5.00
  2452647.8014          29012.00                          6.00
  2452648.8174          28998.00                          4.00
  2452649.8307          29084.00                          4.00
  2452712.6780          29097.00                          5.00
  2452713.6034          29003.00                          5.00
  2452714.6230          29009.00                          5.00
  2452715.5791          29080.00                          5.00
  2452716.5707          29002.00                          5.00
  2452717.6163          29001.00                          5.00
