\STAR_ID='HD 120136'
\DATA_CATEGORY='Planet Radial Velocity Curve'
\NUMBER_OF_POINTS='99'
\TIME_REFERENCE_FRAME='HJD'
\MINIMUM_DATE='2449767.0263'
\DATE_UNITS='days'
\MAXIMUM_DATE='2455603.92485'
\MINIMUM_VALUE='-712.289978'
\VALUE_UNITS='m/s'
\MAXIMUM_VALUE='492.0186157'
\REFERENCE='Howard & Fulton, 2016'
\BIBCODE='2016arXiv160603134H'
\TELESCOPE='3.0m Shane'
\INSTRUMENT='l: Hamilton Spectrograph post-dewar 16 (after November 1994)'
\WAVELENGTH_CALIBRATION_TECHNIQUE='Iodine'
\OBSERVATORY_SITE='Lick Observatory, California'
\COLUMN_RADIAL_VELOCITY='Relative radial velocity'
\COLUMN_RADIAL_VELOCITY_UNCERTAINTY='Uncertainty in RADIAL_VELOCITY'
|          HJD|Radial_Velocity|Radial_Velocity_Uncertainty|
|       double|         double|                     double|
|         days|          m / s|                      m / s|
|         null|           null|                       null|
  2449767.0263    -325.8399963                  17.4699993 
 2449857.72793     492.0186157                    5.515666 
 2450069.06423      86.5083771                    5.832345 
 2450072.05371    -173.6999969                   7.9099998 
 2450073.08203     484.8099976                   8.1400003 
 2450173.92244    -408.0117188                   6.9951739 
 2450203.82343    -434.3461304                   5.7920179 
  2450214.8243       140.99823                   5.9826498 
   2450215.719     453.0360107                   5.7062993 
 2450231.77246     381.3999939                   9.0799999 
 2450232.68262     233.4900055                  12.7900009 
 2450232.90332      74.1600037                   10.210001 
 2450233.72363    -467.2999878                   9.5600004 
 2450233.84766    -488.4299927                        9.54 
 2450234.67285           89.75                   8.8999996 
 2450234.83301     220.0200043                   9.6800003 
 2450235.72266          383.25                   8.1300001 
 2450235.83106     322.6199951                   9.4399996 
 2450263.67676    -466.2600098                        7.79 
 2450299.67773    -371.6400146                   7.4999995 
 2450502.99414     103.9400024                   8.2700005 
 2450503.96387     415.5400085                   7.9899998 
 2450504.80552     -199.783783                   5.8905454 
 2450505.04492    -373.6000061                   8.1000004 
 2450537.90723    -168.9900055                   8.3400002 
 2450563.77539     284.0400085                   8.8800001 
 2450613.74902     127.2300034                   7.8600006 
 2450614.76367    -458.7000122                   8.5500002 
 2450645.70996     303.4200134                   7.3400002 
 2450655.69629     311.7799988                   8.9700003 
 2450794.06934    -253.6300049                        7.46 
 2450977.72955     360.9042358                   6.6885128 
 2451005.71289    -465.3900146                   7.8499999 
 2451207.02051    -217.1600037                        7.04 
 2451303.82715    -518.4899902                   7.4099998 
 2451304.76465     171.8899994                        7.04 
 2451305.76465     297.8800049                        7.48 
 2451537.08203     415.6700134                   7.0999999 
 2451627.84668    -379.1700134                   7.5999999 
 2451628.85547    -290.4899902                   8.5699997 
 2451698.74316             0.0                   6.9100003 
 2451940.02842    -421.1908569                   5.9064779 
   2452041.843    -342.4592896                   5.8453946 
  2452055.8291    -485.4700012                   7.7300005 
 2452333.97949    -502.2600098                   6.4499998 
  2452334.9707     175.8899994                   8.1199999 
  2452335.9707     290.7200012                   7.8800001 
 2452338.96387     362.9700012                   7.0700002 
 2452376.78834    -491.8875122                   5.3855205 
 2452380.80638    -299.6841431                    5.526917 
 2452474.71681     438.1868286                   4.7307601 
 2452658.99909    -297.0419312                   4.7548327 
 2452737.89735    -529.6855469                   4.4583483 
 2452797.72406    -544.4384766                     5.50951 
  2453022.0475     -77.3300018                   7.4399996 
 2453048.95816    -439.9500122                  13.5100002 
 2453069.88184    -188.5099945                   7.1200004 
 2453081.95406    -288.4517517                   4.7713995 
 2453102.87207    -315.2999878                   6.9000001 
 2453107.85493     192.3167419                   4.7436748 
 2453117.83737     159.2878723                   5.3762884 
  2453119.8418      -26.447979                   7.4700723 
 2453120.81619     340.6234741                   5.2848735 
  2453130.8291     334.3800049                        6.71 
 2453154.84668    -345.1900024                   7.2600002 
 2453155.79102    -360.6400146                   6.5300002 
 2453156.74805     358.6799927                   6.2399998 
 2453157.78516           10.96                   6.8600001 
  2453161.7061     -471.986908                   4.8108978 
 2453166.73162     274.2999878                  13.6499996 
 2453167.68226     -31.6499996                  10.3800001 
 2453363.07311      47.8586082                    4.269855 
 2453389.07935     331.1908875                   5.0774593 
 2453391.00703    -355.8208008                   4.4525537 
 2453403.06791    -171.9808502                   4.9141479 
 2453406.05824     106.6238251                   4.0448585 
 2453436.93104    -549.1054688                    5.738637 
 2453438.96484     294.1820068                   5.7288094 
 2453439.98785     -495.334259                   5.5856347 
 2453440.91041    -203.5834961                   5.5653715 
 2453460.89801      -82.158287                   5.6280904 
 2453479.87291    -567.9212646                    6.056613 
 2453565.73956    -479.2380981                   5.6531558 
 2453753.03538     300.2313538                   6.4887857 
 2453756.08854     230.3456421                   4.6645017 
 2454103.09285    -475.0799866                   7.7599998 
 2454134.03606     319.1980896                   3.5090666 
 2454135.93545    -590.4976807                   5.0389628 
 2454165.96726    -486.8370361                   5.0640411 
 2454196.86918     281.6616516                   5.6076822 
 2454221.81968    -644.7000122                   9.2700005 
 2454275.68902    -252.7799988                  12.6700001 
 2454283.68875     104.5999985                   8.6999998 
 2454548.87848     -20.3099995                   6.7999997 
 2454613.79044     -25.0987663                   6.4149518 
 2454866.04716     197.7758179                   7.6264944 
 2455578.04757      67.2200012                   7.6599994 
 2455602.94974     -712.289978                   7.0999999 
 2455603.92485    -440.6600037                   8.4099998 
